Time[ms]	PL.CMD([Axis1] Position command)[deg]	VL.CMD([Axis1] Velocity command)[rpm]	VL.FBFILTER([Axis1] Velocity feedback filter)[rpm]							#ParentName	#Name	#Type	#Value
0	3.24	13.55	13.556							Root	DataStructureVersion	String	V1.0
12	4.216	13.442	13.554							Root	DataColumnCount	Integer	4
24	5.192	13.253	13.557							Root	Format	Group	
36	6.169	13.421	13.562							Format	ListSeparator	String	","
48	7.145	13.59	13.558							Format	DecimalSeparator	String	.
60	8.121	13.435	13.559							Format	GroupSeparator	String	","
72	9.098	13.486	13.559							Root	Header	Group	
84	10.073	13.7	13.558							Header	ContentDescription	String	Kollmorgen WorkBench Scope
96	11.05	13.88	13.56							Header	UserNote	String	
108	12.026	13.448	13.557							Header	ExportDate	DateTime	2020-03-06 18:03:07 UTC
120	13.003	13.275	13.559							Root	XYTraceSources	Array(Group)	3
132	13.979	13.188	13.565							XYTraceSources	XYTraceSource[0]	Group	
144	14.955	13.738	13.561							XYTraceSource[0]	XDataColumnIndex	Integer	0
156	15.932	13.932	13.563							XYTraceSource[0]	XDataColumnIndex	Integer	1
168	16.909	13.712	13.562							XYTraceSource[0]	Name	String	[Axis1] Position command
180	17.884	13.468	13.557							XYTraceSource[0]	Unit	String	deg
192	18.861	13.275	13.561							XYTraceSource[0]	DeviceName	String	PL.CMD
204	19.837	12.799	13.557							XYTraceSources	XYTraceSource[1]	Group	
216	20.814	13.394	13.562							XYTraceSource[1]	XDataColumnIndex	Integer	0
228	21.791	13.405	13.567							XYTraceSource[1]	XDataColumnIndex	Integer	2
240	22.768	13.549	13.562							XYTraceSource[1]	Name	String	[Axis1] Velocity command
252	23.744	13.768	13.565							XYTraceSource[1]	Unit	String	rpm
264	24.721	13.7	13.563							XYTraceSource[1]	DeviceName	String	VL.CMD
276	25.697	13.933	13.562							XYTraceSources	XYTraceSource[2]	Group	
288	26.674	13.754	13.563							XYTraceSource[2]	XDataColumnIndex	Integer	0
300	27.651	13.175	13.563							XYTraceSource[2]	XDataColumnIndex	Integer	3
312	28.628	13.464	13.566							XYTraceSource[2]	Name	String	[Axis1] Velocity feedback filter
324	29.605	13.828	13.569							XYTraceSource[2]	Unit	String	rpm
336	30.581	13.85	13.563							XYTraceSource[2]	DeviceName	String	VL.FBFILTER
348	31.558	14.27	13.571										
360	32.535	13.546	13.565										
372	33.511	14.086	13.565										
384	34.488	13.381	13.568										
396	35.465	13.457	13.564										
408	36.442	13.317	13.567										
420	37.419	13.296	13.57										
432	38.396	13.204	13.565										
444	39.372	13.173	13.57										
456	40.35	13.469	13.568										
468	41.326	13.489	13.567										
480	42.303	13.339	13.567										
492	43.281	13.414	13.567										
504	44.257	13.451	13.569										
516	45.235	13.349	13.572										
528	46.211	13.988	13.569										
540	47.189	13.227	13.572										
552	48.166	13.466	13.568										
564	49.143	13.752	13.569										
576	50.12	13.445	13.569										
588	51.097	14.4	13.571										
600	52.074	13.6	13.571										
612	53.052	13.262	13.575										
624	54.029	13.575	13.571										
636	55.006	13.747	13.573										
648	55.983	13.686	13.57										
660	56.96	13.838	13.571										
672	57.937	12.955	13.57										
684	58.914	13.863	13.571										
696	59.892	14.144	13.574										
708	60.869	13.267	13.573										
720	61.846	14.037	13.573										
732	62.823	13.451	13.575										
744	63.8	13.836	13.57										
756	64.778	13.741	13.573										
768	65.755	13.897	13.573										
780	66.732	13.373	13.572										
792	67.709	13.677	13.576										
804	68.687	13.245	13.575										
816	69.664	13.795	13.574										
828	70.641	13.384	13.575										
840	71.618	13.458	13.571										
852	72.596	13.631	13.574										
864	73.573	12.991	13.574										
876	74.55	13.855	13.574										
888	75.528	13.627	13.579										
900	76.505	13.566	13.575										
912	77.482	13.111	13.573										
924	78.46	13.331	13.573										
936	79.437	13.365	13.57										
948	80.414	13.641	13.574										
960	81.392	13.665	13.571										
972	82.369	13.568	13.574										
984	83.347	13.534	13.579										
996	84.324	13.047	13.574										
1008	85.301	14.162	13.579										
1020	86.279	13.469	13.574										
1032	87.256	13.876	13.573										
1044	88.234	13.339	13.576										
1056	89.211	14.204	13.574										
1068	90.189	14.227	13.58										
1080	91.166	13.598	13.58										
1092	92.145	13.226	13.583										
1104	93.12	13.832	13.57										
1116	94.1	12.933	13.58										
1128	95.076	13.666	13.575										
1140	96.054	13.527	13.579										
1152	97.031	13.454	13.577										
1164	98.009	13.517	13.584										
1176	98.987	12.945	13.582										
1188	99.965	13.73	13.578										
1200	100.942	13.824	13.579										
1212	101.92	13.205	13.577										
1224	102.898	13.573	13.577										
1236	103.876	12.639	13.579										
1248	104.853	13.532	13.578										
1260	105.831	13.838	13.586										
1272	106.809	13.516	13.583										
1284	107.787	13.301	13.58										
1296	108.765	13.196	13.579										
1308	109.742	13.431	13.576										
1320	110.721	13.773	13.582										
1332	111.698	13.536	13.58										
1344	112.676	13.513	13.582										
1356	113.655	13.633	13.584										
1368	114.633	13.251	13.583										
1380	115.611	13.44	13.582										
1392	116.589	13.355	13.582										
1404	117.567	13.281	13.576										
1416	118.545	13.531	13.584										
1428	119.523	13.973	13.583										
1440	120.501	14.303	13.589										
1452	121.479	13.627	13.588										
1464	122.457	13.604	13.587										
1476	123.435	13.384	13.585										
1488	124.414	13.863	13.584										
1500	125.392	13.997	13.587										
1512	126.37	13.874	13.588										
1524	127.348	13.752	13.588										
1536	128.327	13.704	13.59										
1548	129.305	13.473	13.594										
1560	130.283	13.808	13.582										
1572	131.263	13.756	13.598										
1584	132.24	13.091	13.585										
1596	133.219	13.772	13.59										
1608	134.198	13.103	13.591										
1620	135.176	13.978	13.59										
1632	136.155	13.505	13.598										
1644	137.133	13.748	13.588										
1656	138.112	13.067	13.593										
1668	139.091	13.202	13.589										
1680	140.069	13.474	13.591										
1692	141.048	13.515	13.595										
1704	142.027	13.385	13.595										
1716	143.006	13.705	13.597										
1728	143.985	13.701	13.6										
1740	144.964	13.452	13.595										
1752	145.943	13.52	13.598										
1764	146.922	12.794	13.593										
1776	147.902	13.451	13.599										
1788	148.881	13.268	13.6										
1800	149.86	13.953	13.6										
1812	150.84	14.146	13.607										
1824	151.82	13.145	13.602										
1836	152.799	13.634	13.6										
1848	153.778	13.552	13.604										
1860	154.758	13.688	13.606										
1872	155.738	13.493	13.608										
1884	156.717	14.013	13.606										
1896	157.698	13.829	13.611										
1908	158.678	13.873	13.613										
1920	159.657	13.738	13.608										
1932	160.637	13.731	13.613										
1944	161.617	13.343	13.61										
1956	162.597	13.585	13.613										
1968	163.578	13.573	13.61										
1980	164.558	14.013	13.616										
1992	165.539	14.015	13.62										
2004	166.519	13.461	13.615										
2016	167.5	14.036	13.619										
2028	168.48	14.145	13.619										
2040	169.461	13.8	13.619										
2052	170.442	14.108	13.626										
2064	171.423	13.368	13.623										
2076	172.404	13.677	13.628										
2088	173.385	13.106	13.623										
2100	174.366	13.64	13.627										
2112	175.347	13.981	13.628										
2124	176.328	13.319	13.625										
2136	177.31	14.656	13.632										
2148	178.291	13.543	13.629										
2160	179.273	13.989	13.633										
2172	180.255	13.501	13.631										
2184	181.236	14.043	13.636										
2196	182.218	13.523	13.632										
2208	183.2	14.015	13.641										
2220	184.181	13.597	13.636										
2232	185.163	14.026	13.637										
2244	186.146	13.692	13.642										
2256	187.128	13.321	13.64										
2268	188.109	13.767	13.639										
2280	189.091	13.637	13.638										
2292	190.074	14.251	13.64										
2304	191.056	13.618	13.642										
2316	192.038	13.734	13.642										
2328	193.021	13.371	13.648										
2340	194.004	13.211	13.644										
2352	194.986	14.095	13.648										
2364	195.968	13.794	13.645										
2376	196.951	13.633	13.645										
2388	197.934	14.046	13.65										
2400	198.916	12.629	13.648										
2412	199.9	14.325	13.657										
2424	200.883	13.574	13.652										
2436	201.865	14.059	13.652										
2448	202.849	13.564	13.651										
2460	203.832	13.633	13.651										
2472	204.815	13.875	13.66										
2484	205.798	14.448	13.66										
2496	206.782	14.071	13.663										
2508	207.766	13.907	13.659										
2520	208.749	13.273	13.658										
2532	209.732	13.461	13.657										
2544	210.716	13.811	13.66										
2556	211.7	14.358	13.663										
2568	212.683	14.02	13.662										
2580	213.669	13.781	13.673										
2592	214.651	13.602	13.662										
2604	215.636	13.802	13.668										
2616	216.619	14.214	13.666										
2628	217.604	14.062	13.669										
2640	218.588	14.059	13.669										
2652	219.573	13.433	13.672										
2664	220.557	13.455	13.673										
2676	221.541	13.622	13.67										
2688	222.526	13.754	13.674										
2700	223.51	13.855	13.673										
2712	224.495	14.409	13.677										
2724	225.48	14.201	13.675										
2736	226.465	13.82	13.68										
2748	227.45	13.476	13.678										
2760	228.434	14.292	13.677										
2772	229.419	13.994	13.675										
2784	230.404	13.438	13.676										
2796	231.389	13.255	13.675										
2808	232.374	13.812	13.681										
2820	233.359	13.615	13.684										
2832	234.344	14.139	13.681										
2844	235.329	13.705	13.682										
2856	236.314	13.962	13.678										
2868	237.299	12.968	13.68										
2880	238.284	13.654	13.682										
2892	239.27	14.379	13.688										
2904	240.255	13.526	13.685										
2916	241.241	14.013	13.684										
2928	242.226	12.928	13.68										
2940	243.211	13.623	13.683										
2952	244.196	13.429	13.685										
2964	245.182	13.949	13.687										
2976	246.168	13.831	13.69										
2988	247.153	12.447	13.685										
3000	248.138	12.942	13.686										
3012	249.124	12.958	13.682										
3024	250.109	13.812	13.684										
3036	251.095	14.408	13.689										
3048	252.081	14.017	13.69										
3060	253.067	13.785	13.692										
3072	254.052	13.315	13.69										
3084	255.038	13.572	13.69										
3096	256.023	13.703	13.687										
3108	257.009	13.526	13.689										
3120	257.994	13.951	13.689										
3132	258.981	12.393	13.692										
3144	259.966	14.071	13.69										
3156	260.952	13.058	13.69										
3168	261.937	14.516	13.692										
3180	262.923	13.847	13.691										
3192	263.909	14.223	13.69										
3204	264.895	13.302	13.694										
3216	265.88	13.506	13.692										
3228	266.866	12.89	13.692										
3240	267.852	14.338	13.69										
3252	268.837	13.962	13.691										
3264	269.823	13.959	13.692										
3276	270.809	12.869	13.69										
3288	271.795	13.498	13.694										
3300	272.781	13.795	13.694										
3312	273.767	13.823	13.694										
3324	274.753	13.823	13.692										
3336	275.739	14.127	13.694										
3348	276.725	13.568	13.696										
3360	277.711	14.023	13.693										
3372	278.697	13.519	13.698										
3384	279.682	14.371	13.686										
3396	280.67	13.685	13.709										
3408	281.654	13.788	13.689										
3420	282.64	13.69	13.693										
3432	283.626	13.503	13.691										
3444	284.612	13.836	13.699										
3456	285.598	13.319	13.69										
3468	286.584	14.222	13.696										
3480	287.57	14.063	13.694										
3492	288.556	13.91	13.696										
3504	289.542	13.93	13.693										
3516	290.528	14.138	13.695										
3528	291.514	13.568	13.695										
3540	292.5	14.4	13.698										
3552	293.486	13.899	13.693										
3564	294.472	13.648	13.696										
3576	295.458	12.557	13.689										
3588	296.444	13.558	13.694										
3600	297.431	13.446	13.694										
3612	298.416	13.892	13.697										
3624	299.403	13.521	13.693										
3636	300.388	13.772	13.691										
3648	301.374	12.847	13.693										
3660	302.36	13.306	13.692										
3672	303.346	13.789	13.697										
3684	304.332	13.778	13.695										
3696	305.318	14.278	13.693										
3708	306.304	13.675	13.692										
3720	307.29	13.59	13.698										
3732	308.276	13.741	13.69										
3744	309.262	13.749	13.696										
3756	310.248	13.49	13.695										
3768	311.234	13.576	13.694										
3780	312.22	13.224	13.692										
3792	313.206	13.792	13.693										
3804	314.192	13.423	13.694										
3816	315.178	14.02	13.694										
3828	316.164	14.055	13.697										
3840	317.15	14.183	13.695										
3852	318.136	13.655	13.695										
3864	319.121	13.283	13.691										
3876	320.107	13.669	13.693										
3888	321.093	13.259	13.694										
3900	322.079	14.069	13.696										
3912	323.065	13.469	13.693										
3924	324.051	13.631	13.692										
3936	325.037	13.109	13.691										
3948	326.023	13.473	13.692										
3960	327.009	13.793	13.694										
3972	327.995	14.439	13.696										
3984	328.981	13.782	13.698										
3996	329.967	13.774	13.693										
4008	330.953	13.569	13.696										
4020	331.939	14.054	13.694										
4032	332.925	13.926	13.696										
4044	333.911	14.076	13.693										
4056	334.897	13.689	13.697										
4068	335.883	13.492	13.694										
4080	336.869	14.155	13.694										
4092	337.855	13.561	13.691										
4104	338.841	13.903	13.694										
4116	339.827	13.499	13.694										
4128	340.813	14.292	13.699										
4140	341.8	13.817	13.698										
4152	342.786	14.151	13.695										
4164	343.772	13.266	13.694										
4176	344.758	13.869	13.693										
4188	345.744	13.585	13.698										
4200	346.73	13.834	13.695										
4212	347.716	13.483	13.701										
4224	348.702	13.083	13.693										
4236	349.689	12.921	13.696										
4248	350.675	13.577	13.695										
4260	351.661	13.757	13.699										
4272	352.647	13.725	13.69										
4284	353.634	13.329	13.705										
4296	354.619	13.767	13.69										
4308	355.606	13.638	13.701										
4320	356.592	13.804	13.696										
4332	357.578	13.604	13.7										
4344	358.565	13.678	13.7										
4356	359.551	13.45	13.697										
4368	0.438	13.229	13.699										
4380	1.424	13.735	13.697										
4392	2.41	14.163	13.701										
4404	3.397	14.224	13.702										
4416	4.383	13.589	13.7										
4428	5.369	13.869	13.698										
4440	6.356	13.592	13.701										
4452	7.342	13.559	13.7										
4464	8.329	13.41	13.702										
4476	9.315	14.146	13.701										
4488	10.302	13.679	13.7										
4500	11.288	13.732	13.7										
4512	12.274	13.755	13.7										
4524	13.261	13.42	13.704										
4536	14.247	14.359	13.701										
4548	15.234	13.518	13.703										
4560	16.22	13.686	13.699										
4572	17.207	13.399	13.7										
4584	18.193	13.774	13.704										
4596	19.18	14.706	13.706										
4608	20.166	13.592	13.698										
4620	21.153	14.484	13.706										
4632	22.139	13.235	13.699										
4644	23.126	13.763	13.702										
4656	24.113	13.426	13.7										
4668	25.099	14.106	13.702										
4680	26.086	13.663	13.703										
4692	27.072	13.396	13.702										
4704	28.059	13.339	13.702										
4716	29.046	13.803	13.702										
4728	30.032	13.766	13.704										
4740	31.019	14.151	13.703										
4752	32.006	13.279	13.708										
4764	32.993	13.516	13.706										
4776	33.979	13.571	13.703										
4788	34.966	14.076	13.703										
4800	35.953	13.651	13.704										
4812	36.939	13.515	13.7										
4824	37.926	13.729	13.708										
4836	38.913	13.603	13.703										
4848	39.9	13.396	13.709										
4860	40.886	13.385	13.703										
4872	41.873	13.762	13.705										
4884	42.86	12.49	13.703										
4896	43.846	13.743	13.707										
4908	44.834	13.375	13.708										
4920	45.82	14.147	13.708										
4932	46.807	13.925	13.705										
4944	47.793	13.922	13.704										
4956	48.78	14.385	13.709										
4968	49.767	13.972	13.706										
4980	50.754	13.888	13.713										
4992	51.741	13.846	13.704										
5004	52.728	13.532	13.706										
5016	53.714	13.678	13.703										
5028	54.702	13.74	13.706										
5040	55.688	14.034	13.705										
5052	56.675	14.588	13.709										
5064	57.662	13.484	13.706										
5076	58.649	13.778	13.708										
5088	59.636	13.459	13.703										
5100	60.622	13.715	13.707										
5112	61.609	13.52	13.701										
5124	62.596	13.712	13.705										
5136	63.583	13.616	13.707										
5148	64.57	14.121	13.707										
5160	65.557	13.482	13.704										
5172	66.543	13.741	13.704										
5184	67.53	13.121	13.705										
5196	68.517	14.12	13.706										
5208	69.504	13.098	13.709										
5220	70.491	13.437	13.704										
5232	71.478	13.374	13.708										
5244	72.464	13.682	13.703										
5256	73.451	13.713	13.706										
5268	74.438	13.809	13.704										
5280	75.425	13.916	13.711										
5292	76.412	13.514	13.706										
5304	77.398	13.663	13.705										
5316	78.385	13.939	13.703										
5328	79.372	13.947	13.704										
5340	80.359	13.717	13.704										
5352	81.346	13.776	13.709										
5364	82.333	13.636	13.707										
5376	83.319	13.379	13.706										
5388	84.305	13.656	13.696										
5400	85.293	13.494	13.704										
5412	86.279	13.823	13.702										
5424	87.266	13.629	13.707										
5436	88.254	13.63	13.712										
5448	89.24	13.975	13.705										
5460	90.227	13.646	13.707										
5472	91.214	14.272	13.713										
5484	92.2	14.19	13.703										
5496	93.188	13.116	13.713										
5508	94.175	13.58	13.715										
5520	95.162	13.57	13.707										
5532	96.148	14.115	13.707										
5544	97.135	13.675	13.703										
5556	98.122	13.832	13.707										
5568	99.109	13.713	13.704										
5580	100.096	13.931	13.711										
5592	101.083	13.8	13.71										
5604	102.07	14.144	13.708										
5616	103.057	13.779	13.705										
5628	104.044	13.534	13.707										
5640	105.031	12.895	13.705										
5652	106.017	13.938	13.708										
5664	107.005	13.821	13.711										
5676	107.991	13.814	13.707										
5688	108.979	12.984	13.709										
5700	109.965	13.742	13.704										
5712	110.952	13.049	13.706										
5724	111.939	13.661	13.708										
5736	112.927	13.812	13.712										
5748	113.914	13.715	13.709										
5760	114.901	13.503	13.708										
5772	115.887	13.052	13.705										
5784	116.875	13.598	13.711										
5796	117.862	13.934	13.709										
5808	118.849	14.368	13.714										
5820	119.836	13.688	13.713										
5832	120.822	13.256	13.709										
5844	121.81	13.339	13.708										
5856	122.796	13.365	13.708										
5868	123.784	13.688	13.709										
5880	124.771	14.107	13.711										
5892	125.758	13.436	13.713										
5904	126.745	13.992	13.712										
5916	127.733	13.369	13.711										
5928	128.72	14.121	13.715										
5940	129.707	13.696	13.708										
5952	130.694	14.035	13.709										
5964	131.682	14.056	13.717										
5976	132.669	14.176	13.711										
5988	133.656	13.879	13.711										
6000	134.643	14.287	13.711										
6012	135.631	13.732	13.713										
6024	136.619	13.674	13.717										
6036	137.606	13.878	13.716										
6048	138.593	13.136	13.714										
6060	139.581	12.557	13.711										
6072	140.568	13.397	13.71										
6084	141.556	13.565	13.714										
6096	142.543	14.017	13.717										
6108	143.531	13.798	13.719										
6120	144.519	13.689	13.719										
6132	145.506	13.371	13.717										
6144	146.494	13.391	13.715										
6156	147.482	13.433	13.72										
6168	148.47	13.993	13.718										
6180	149.458	13.816	13.721										
6192	150.446	13.536	13.725										
6204	151.433	13.83	13.72										
6216	152.422	13.644	13.723										
6228	153.41	13.672	13.723										
6240	154.398	13.754	13.726										
6252	155.387	14.019	13.727										
6264	156.375	13.191	13.727										
6276	157.363	13.971	13.725										
6288	158.351	13.271	13.727										
6300	159.34	14.532	13.728										
6312	160.328	13.838	13.73										
6324	161.317	14.507	13.73										
6336	162.306	13.995	13.735										
6348	163.294	13.754	13.728										
6360	164.283	13.841	13.734										
6372	165.272	13.917	13.73										
6384	166.261	14.083	13.735										
6396	167.25	13.51	13.733										
6408	168.239	13.794	13.739										
6420	169.228	13.321	13.734										
6432	170.217	14.548	13.738										
6444	171.206	13.262	13.735										
6456	172.195	13.85	13.739										
6468	173.185	13.62	13.739										
6480	174.175	13.401	13.744										
6492	175.164	13.405	13.74										
6504	176.153	13.407	13.742										
6516	177.142	14.233	13.744										
6528	178.132	13.856	13.745										
6540	179.122	14.087	13.745										
6552	180.112	13.639	13.749										
6564	181.102	14.043	13.747										
6576	182.092	14.175	13.749										
6588	183.082	14.946	13.755										
6600	184.071	13.977	13.746										
6612	185.062	13.428	13.75										
6624	186.053	13.819	13.759										
6636	187.042	13.527	13.749										
6648	188.032	13.865	13.752										
6660	189.022	13.887	13.749										
6672	190.013	13.616	13.754										
6684	191.003	14.124	13.755										
6696	191.994	13.57	13.758										
6708	192.984	12.557	13.752										
6720	193.974	13.441	13.757										
6732	194.965	13.3	13.757										
6744	195.956	14.154	13.761										
6756	196.947	14.338	13.762										
6768	197.938	13.693	13.764										
6780	198.928	13.868	13.764										
6792	199.92	13.449	13.764										
6804	200.91	13.653	13.762										
6816	201.902	14.396	13.768										
6828	202.893	13.996	13.767										
6840	203.885	13.614	13.77										
6852	204.875	14.972	13.769										
6864	205.867	13.766	13.766										
6876	206.858	14.254	13.768										
6888	207.85	13.59	13.767										
6900	208.842	13.829	13.774										
6912	209.834	13.543	13.775										
6924	210.825	13.493	13.77										
6936	211.817	13.561	13.774										
6948	212.809	13.567	13.775										
6960	213.801	13.275	13.781										
6972	214.792	13.557	13.774										
6984	215.785	13.66	13.782										
6996	216.777	13.05	13.777										
7008	217.769	13.5	13.779										
7020	218.761	13.934	13.782										
7032	219.753	14.421	13.782										
7044	220.746	14.129	13.788										
7056	221.738	14.034	13.781										
7068	222.731	13.647	13.786										
7080	223.723	13.8	13.782										
7092	224.716	13.724	13.785										
7104	225.709	14.182	13.79										
7116	226.702	13.823	13.79										
7128	227.694	14.16	13.788										
7140	228.687	14.035	13.786										
7152	229.68	13.707	13.787										
7164	230.673	13.438	13.787										
7176	231.666	14.152	13.795										
7188	232.659	13.929	13.794										
7200	233.652	13.971	13.792										
7212	234.645	13.346	13.789										
7224	235.638	13.932	13.791										
7236	236.632	13.341	13.795										
7248	237.625	14.48	13.799										
7260	238.618	13.891	13.795										
7272	239.611	13.921	13.792										
7284	240.604	13.652	13.795										
7296	241.598	13.183	13.793										
7308	242.592	13.416	13.798										
7320	243.585	13.759	13.802										
7332	244.578	13.767	13.799										
7344	245.572	13.738	13.796										
7356	246.565	13.595	13.798										
7368	247.559	13.084	13.799										
7380	248.553	13.319	13.806										
7392	249.546	13.756	13.798										
7404	250.54	13.958	13.802										
7416	251.533	14.152	13.798										
7428	252.527	14.376	13.804										
7440	253.521	14.11	13.802										
7452	254.515	13.846	13.803										
7464	255.509	14.063	13.804										
7476	256.502	14.176	13.799										
7488	257.496	14.065	13.801										
7500	258.49	15.251	13.802										
7512	259.484	13.215	13.803										
7524	260.478	13.458	13.806										
7536	261.471	13.523	13.803										
7548	262.465	14.078	13.803										
7560	263.459	14.334	13.805										
7572	264.453	14.055	13.805										
7584	265.446	13.558	13.807										
7596	266.441	13.633	13.807										
7608	267.434	13.69	13.802										
7620	268.428	14.015	13.805										
7632	269.422	13.792	13.803										
7644	270.417	14.41	13.809										
7656	271.411	13.425	13.805										
7668	272.405	14.362	13.81										
7680	273.399	13.059	13.804										
7692	274.393	14.004	13.809										
7704	275.387	14.583	13.808										
7716	276.382	13.399	13.811										
7728	277.375	13.583	13.81										
7740	278.37	13.588	13.813										
7752	279.362	13.93	13.797										
7764	280.359	13.114	13.812										
7776	281.352	14.231	13.813										
7788	282.347	13.861	13.806										
7800	283.341	14.253	13.809										
7812	284.335	14.212	13.809										
7824	285.33	12.58	13.807										
7836	286.324	14.162	13.808										
7848	287.319	13.994	13.814										
7860	288.313	14.17	13.811										
7872	289.308	13.706	13.811										
7884	290.302	13.797	13.81										
7896	291.296	13.467	13.814										
7908	292.29	13.812	13.811										
7920	293.285	13.365	13.812										
7932	294.279	14.042	13.814										
7944	295.274	14.765	13.815										
7956	296.269	13.848	13.813										
7968	297.263	13.863	13.811										
7980	298.258	13.427	13.813										
7992	299.252	13.99	13.811										
8004	300.246	13.772	13.81										
8016	301.241	13.908	13.81										
8028	302.235	14.063	13.812										
8040	303.23	13.686	13.815										
8052	304.225	13.682	13.814										
8064	305.219	13.267	13.812										
8076	306.213	14.063	13.812										
8088	307.208	15.177	13.817										
8100	308.202	14.665	13.811										
8112	309.197	14.222	13.815										
8124	310.191	13.967	13.812										
8136	311.186	13.418	13.811										
8148	312.18	13.534	13.81										
8160	313.175	13.312	13.807										
8172	314.169	14.14	13.814										
8184	315.164	13.857	13.814										
8196	316.158	13.813	13.813										
8208	317.152	13.368	13.81										
8220	318.147	13.446	13.811										
8232	319.141	12.766	13.811										
8244	320.136	13.775	13.815										
8256	321.13	13.89	13.813										
8268	322.125	13.871	13.81										
8280	323.119	13.872	13.812										
8292	324.114	13.635	13.81										
8304	325.109	13.497	13.814										
8316	326.103	13.812	13.812										
8328	327.098	14.145	13.815										
8340	328.092	14.106	13.815										
8352	329.087	13.392	13.814										
8364	330.081	13.75	13.814										
8376	331.077	13.539	13.817										
8388	332.07	14.067	13.813										
8400	333.065	14.017	13.816										
8412	334.06	13.965	13.815										
8424	335.055	14.24	13.816										
8436	336.05	13.789	13.818										
8448	337.044	13.862	13.815										
8460	338.039	13.412	13.815										
8472	339.034	14.287	13.813										
8484	340.029	13.698	13.818										
8496	341.023	14.309	13.82										
8508	342.018	13.841	13.818										
8520	343.013	14.044	13.816										
8532	344.008	13.393	13.814										
8544	345.003	13.918	13.818										
8556	345.997	14.217	13.816										
8568	346.993	14.362	13.822										
8580	347.987	14.037	13.816										
8592	348.982	13.729	13.821										
8604	349.977	13.884	13.817										
8616	350.972	14.367	13.819										
8628	351.967	13.613	13.817										
8640	352.963	13.627	13.828										
8652	353.957	14.322	13.819										
8664	354.953	13.695	13.822										
8676	355.948	13.97	13.824										
8688	356.942	13.544	13.816										
8700	357.938	13.803	13.826										
8712	358.933	13.673	13.82										
8724	359.928	13.876	13.82										
8736	0.823	13.541	13.821										
8748	1.819	14.094	13.82										
8760	2.814	14.173	13.824										
8772	3.809	13.587	13.822										
8784	4.804	13.138	13.824										
8796	5.799	13.905	13.823										
8808	6.795	13.54	13.819										
8820	7.79	14.008	13.823										
8832	8.786	13.451	13.825										
8844	9.781	14.047	13.826										
8856	10.776	13.324	13.823										
8868	11.772	13.797	13.825										
8880	12.767	12.928	13.821										
8892	13.762	14.577	13.828										
8904	14.758	14.061	13.823										
8916	15.754	13.629	13.827										
8928	16.749	13.732	13.828										
8940	17.744	13.864	13.825										
8952	18.74	13.724	13.823										
8964	19.736	13.736	13.829										
8976	20.731	13.874	13.828										
8988	21.726	13.882	13.826										
9000	22.722	13.5	13.826										
9012	23.717	13.655	13.826										
9024	24.714	13.779	13.831										
9036	25.709	14.568	13.829										
9048	26.705	13.786	13.828										
9060	27.7	13.942	13.828										
9072	28.696	13.849	13.829										
9084	29.692	13.754	13.831										
9096	30.687	13.566	13.826										
9108	31.684	13.388	13.831										
9120	32.679	13.971	13.827										
9132	33.675	13.933	13.831										
9144	34.67	14.199	13.829										
9156	35.667	13.75	13.834										
9168	36.662	13.99	13.833										
9180	37.658	13.613	13.83										
9192	38.654	13.886	13.83										
9204	39.65	14.705	13.833										
9216	40.646	14.227	13.836										
9228	41.641	14.122	13.831										
9240	42.637	13.93	13.833										
9252	43.633	13.988	13.83										
9264	44.63	13.772	13.831										
9276	45.625	13.902	13.833										
9288	46.621	13.719	13.832										
9300	47.617	13.775	13.836										
9312	48.613	14.188	13.831										
9324	49.609	14.23	13.833										
9336	50.605	13.832	13.833										
9348	51.601	13.815	13.837										
9360	52.597	14.198	13.836										
9372	53.593	13.933	13.83										
9384	54.589	13.99	13.833										
9396	55.585	14.112	13.831										
9408	56.582	14.115	13.837										
9420	57.577	13.943	13.834										
9432	58.573	13.317	13.832										
9444	59.569	13.836	13.831										
9456	60.566	13.14	13.832										
9468	61.561	14.208	13.836										
9480	62.558	13.803	13.834										
9492	63.554	14.077	13.837										
9504	64.549	13.555	13.831										
9516	65.546	13.769	13.834										
9528	66.541	14.127	13.835										
9540	67.538	13.896	13.836										
9552	68.534	14.408	13.834										
9564	69.53	13.528	13.833										
9576	70.526	13.948	13.834										
9588	71.522	13.542	13.831										
9600	72.518	13.66	13.836										
9612	73.514	14.418	13.836										
9624	74.51	13.996	13.834										
9636	75.506	14.163	13.834										
9648	76.502	13.203	13.832										
9660	77.499	13.677	13.837										
9672	78.495	13.58	13.833										
9684	79.491	13.879	13.834										
9696	80.486	14.309	13.831										
9708	81.483	13.504	13.835										
9720	82.479	13.885	13.834										
9732	83.476	13.431	13.843										
9744	84.47	12.508	13.823										
9756	85.468	13.178	13.841										
9768	86.463	14.074	13.837										
9780	87.459	14.139	13.836										
9792	88.456	14.099	13.841										
9804	89.452	13.574	13.833										
9816	90.448	13.861	13.835										
9828	91.445	13.883	13.84										
9840	92.442	14.437	13.856										
9852	93.437	13.469	13.837										
9864	94.433	13.588	13.838										
9876	95.429	13.823	13.836										
9888	96.425	13.218	13.834										
9900	97.422	14.093	13.841										
9912	98.418	13.865	13.84										
9924	99.415	14.035	13.843										
9936	100.411	13.677	13.838										
9948	101.407	13.76	13.836										
9960	102.403	14.226	13.838										
9972	103.4	14.053	13.837										
9984	104.397	13.89	13.844										
9996	105.393	12.861	13.836										
10008	106.389	14.124	13.839										
10020	107.386	14.062	13.839										
10032	108.382	13.343	13.839										
10044	109.379	13.73	13.844										
10056	110.375	13.671	13.84										
10068	111.372	14.05	13.842										
10080	112.368	14.194	13.839										
10092	113.365	14.264	13.842										
10104	114.361	14.131	13.842										
10116	115.359	13.752	13.844										
10128	116.355	13.345	13.839										
10140	117.351	13.367	13.838										
10152	118.348	13.778	13.84										
10164	119.345	14.261	13.842										
10176	120.342	13.952	13.844										
10188	121.338	14.717	13.847										
10200	122.335	13.694	13.842										
10212	123.331	13.933	13.845										
10224	124.328	13.692	13.843										
10236	125.325	14.27	13.848										
10248	126.322	14.067	13.844										
10260	127.319	14.081	13.843										
10272	128.315	13.895	13.845										
10284	129.312	13.815	13.843										
10296	130.309	13.597	13.846										
10308	131.306	13.717	13.847										
10320	132.303	13.479	13.844										
10332	133.3	14.304	13.848										
10344	134.297	13.823	13.846										
10356	135.294	14.211	13.845										
10368	136.292	13.335	13.85										
10380	137.289	14.418	13.852										
10392	138.285	14.189	13.848										
10404	139.283	13.61	13.851										
10416	140.28	14.287	13.851										
10428	141.278	13.691	13.855										
10440	142.275	14.2	13.851										
10452	143.272	13.688	13.85										
10464	144.269	13.825	13.85										
10476	145.267	14.405	13.856										
10488	146.265	14.358	13.86										
10500	147.262	14.387	13.853										
10512	148.26	14.135	13.856										
10524	149.258	13.791	13.857										
10536	150.256	14.538	13.855										
10548	151.254	13.559	13.859										
10560	152.251	13.395	13.857										
10572	153.249	14.208	13.861										
10584	154.247	13.997	13.863										
10596	155.245	14.223	13.861										
10608	156.244	13.873	13.866										
10620	157.242	13.5	13.863										
10632	158.24	13.716	13.864										
10644	159.239	14.324	13.865										
10656	160.237	14.115	13.868										
10668	161.236	14.404	13.871										
10680	162.235	13.738	13.869										
10692	163.233	13.692	13.869										
10704	164.231	13.141	13.869										
10716	165.231	14.314	13.875										
10728	166.229	14.208	13.874										
10740	167.229	13.758	13.876										
10752	168.227	14.497	13.876										
10764	169.227	14.411	13.876										
10776	170.226	13.626	13.876										
10788	171.225	13.872	13.878										
10800	172.225	13.654	13.882										
10812	173.224	14.629	13.882										
10824	174.223	14.332	13.879										
10836	175.223	14.317	13.882										
10848	176.222	13.651	13.882										
10860	177.222	14.223	13.887										
10872	178.221	13.759	13.884										
10884	179.221	14.012	13.884										
10896	180.221	13.66	13.885										
10908	181.221	14.347	13.887										
10920	182.222	13.531	13.89										
10932	183.221	14.15	13.891										
10944	184.221	13.63	13.885										
10956	185.221	13.933	13.886										
10968	186.222	13.423	13.893										
10980	187.223	14.25	13.898										
10992	188.222	14.406	13.894										
11004	189.223	13.606	13.89										
11016	190.223	14.08	13.896										
11028	191.224	14.056	13.897										
11040	192.225	13.74	13.899										
11052	193.225	13.708	13.899										
11064	194.225	14.203	13.896										
11076	195.226	13.955	13.899										
11088	196.227	14.47	13.902										
11100	197.229	13.706	13.903										
11112	198.229	14.558	13.904										
11124	199.23	12.96	13.899										
11136	200.231	13.874	13.904										
11148	201.232	14.139	13.906										
11160	202.234	13.851	13.907										
11172	203.235	14.008	13.907										
11184	204.236	13.578	13.905										
11196	205.238	13.94	13.905										
11208	206.24	13.735	13.912										
11220	207.241	13.807	13.91										
11232	208.242	13.815	13.91										
11244	209.244	13.702	13.91										
11256	210.246	13.035	13.912										
11268	211.248	13.92	13.918										
11280	212.25	13.811	13.917										
11292	213.252	13.296	13.909										
11304	214.254	13.745	13.917										
11316	215.255	14.247	13.906										
11328	216.259	14.464	13.924										
11340	217.26	14.196	13.918										
11352	218.263	13.841	13.92										
11364	219.265	14.087	13.92										
11376	220.268	14.137	13.921										
11388	221.271	14.298	13.929										
11400	222.273	14.635	13.923										
11412	223.275	14.466	13.924										
11424	224.278	13.999	13.926										
11436	225.281	13.991	13.924										
11448	226.284	13.816	13.931										
11460	227.286	14.087	13.928										
11472	228.289	13.828	13.925										
11484	229.292	14.297	13.928										
11496	230.295	14.291	13.931										
11508	231.299	13.952	13.933										
11520	232.301	14.07	13.932										
11532	233.304	13.508	13.929										
11544	234.307	12.62	13.928										
11556	235.31	14.023	13.935										
11568	236.314	13.966	13.935										
11580	237.317	13.529	13.934										
11592	238.32	14.006	13.934										
11604	239.323	13.623	13.932										
11616	240.327	13.747	13.936										
11628	241.33	13.133	13.938										
11640	242.333	13.871	13.932										
11652	243.337	14.087	13.936										
11664	244.34	14.079	13.936										
11676	245.344	13.972	13.94										
11688	246.348	15.15	13.942										
11700	247.351	13.753	13.931										
11712	248.354	13.413	13.935										
11724	249.358	13.953	13.938										
11736	250.362	14.011	13.942										
11748	251.365	14.345	13.941										
11760	252.369	14.426	13.938										
11772	253.373	15.794	13.94										
11784	254.376	13.674	13.939										
11796	255.38	13.429	13.941										
11808	256.384	13.624	13.938										
11820	257.387	14.255	13.938										
11832	258.391	13.775	13.937										
11844	259.394	14.111	13.946										
11856	260.398	14.679	13.944										
11868	261.402	13.513	13.937										
11880	262.405	13.544	13.939										
11892	263.409	13.532	13.937										
11904	264.413	14.019	13.942										
11916	265.416	12.51	13.941										
11928	266.42	13.989	13.938										
11940	267.424	14.269	13.941										
11952	268.428	13.715	13.942										
11964	269.432	13.647	13.941										
11976	270.435	13.753	13.943										
11988	271.439	13.902	13.938										
12000	272.443	14.258	13.939										
12012	273.447	14.641	13.948										
12024	274.451	14.38	13.943										
12036	275.455	13.75	13.941										
12048	276.458	14.116	13.941										
12060	277.462	13.92	13.938										
12072	278.466	14.783	13.946										
12084	279.47	13.87	13.936										
12096	280.475	14.105	13.952										
12108	281.478	14.418	13.944										
12120	282.482	13.5	13.94										
12132	283.485	13.595	13.942										
12144	284.489	13.334	13.944										
12156	285.493	13.988	13.941										
12168	286.497	13.729	13.943										
12180	287.501	14.196	13.947										
12192	288.505	13.539	13.941										
12204	289.509	13.987	13.947										
12216	290.513	13.673	13.946										
12228	291.517	13.535	13.944										
12240	292.521	13.588	13.947										
12252	293.525	13.231	13.941										
12264	294.529	14.441	13.945										
12276	295.533	13.661	13.943										
12288	296.537	14.392	13.943										
12300	297.541	13.778	13.945										
12312	298.545	13.802	13.944										
12324	299.549	13.657	13.943										
12336	300.553	14.787	13.945										
12348	301.557	13.868	13.941										
12360	302.561	13.617	13.944										
12372	303.564	14.324	13.943										
12384	304.569	14.183	13.946										
12396	305.572	14.358	13.942										
12408	306.576	14.272	13.949										
12420	307.58	14.004	13.939										
12432	308.584	13.346	13.94										
12444	309.588	13.711	13.941										
12456	310.592	14.67	13.944										
12468	311.596	14.27	13.945										
12480	312.599	14.03	13.945										
12492	313.603	14.207	13.942										
12504	314.607	14.36	13.942										
12516	315.611	13.925	13.943										
12528	316.615	13.484	13.943										
12540	317.618	13.64	13.942										
12552	318.622	13.932	13.942										
12564	319.626	14.097	13.943										
12576	320.63	14.14	13.945										
12588	321.634	13.903	13.939										
12600	322.638	13.472	13.941										
12612	323.641	13.783	13.941										
12624	324.645	13.803	13.939										
12636	325.649	13.852	13.944										
12648	326.653	13.327	13.938										
12660	327.656	14.431	13.943										
12672	328.66	14.271	13.944										
12684	329.664	13.977	13.943										
12696	330.668	13.632	13.944										
12708	331.672	13.754	13.942										
12720	332.676	14.445	13.942										
12732	333.68	13.819	13.945										
12744	334.684	14.422	13.946										
12756	335.688	13.944	13.942										
12768	336.692	13.437	13.943										
12780	337.695	14.053	13.94										
12792	338.699	14.384	13.943										
12804	339.704	13.736	13.946										
12816	340.707	13.441	13.942										
12828	341.711	13.858	13.941										
12840	342.715	13.78	13.943										
12852	343.718	14.205	13.943										
12864	344.723	13.641	13.948										
12876	345.727	14.112	13.944										
12888	346.731	13.655	13.942										
12900	347.735	13.635	13.945										
12912	348.739	14.296	13.945										
12924	349.743	14.114	13.945										
12936	350.747	13.783	13.944										
12948	351.751	14.371	13.948										
12960	352.755	13.517	13.938										
12972	353.759	13.755	13.945										
12984	354.763	14.657	13.947										
12996	355.767	13.614	13.939										
13008	356.771	14.048	13.947										
13020	357.775	14.126	13.944										
13032	358.779	14.192	13.949										
13044	359.783	14.386	13.947										
13056	0.687	14.321	13.948										
13068	1.692	13.618	13.944										
13080	2.696	14.098	13.946										
13092	3.7	13.531	13.947										
13104	4.704	14.156	13.949										
13116	5.708	14.031	13.948										
13128	6.713	13.986	13.951										
13140	7.717	14.42	13.949										
13152	8.721	14.086	13.945										
13164	9.726	13.706	13.949										
13176	10.73	13.952	13.947										
13188	11.734	13.614	13.946										
13200	12.738	13.69	13.95										
13212	13.742	14.609	13.949										
13224	14.747	14.2	13.949										
13236	15.751	13.989	13.947										
13248	16.755	13.887	13.946										
13260	17.76	13.531	13.949										
13272	18.764	13.817	13.951										
13284	19.768	14.04	13.947										
13296	20.773	13.731	13.951										
13308	21.777	14.37	13.95										
13320	22.781	14.317	13.949										
13332	23.786	13.7	13.951										
13344	24.79	13.99	13.949										
13356	25.795	13.39	13.947										
13368	26.799	14.05	13.953										
13380	27.803	14.021	13.953										
13392	28.808	14.099	13.95										
13404	29.812	13.922	13.949										
13416	30.817	14.184	13.952										
13428	31.822	13.648	13.953										
13440	32.827	14.164	13.954										
13452	33.83	13.965	13.949										
13464	34.835	13.069	13.95										
13476	35.84	14.106	13.952										
13488	36.844	14.016	13.95										
13500	37.849	14.224	13.955										
13512	38.853	14.013	13.951										
13524	39.858	14.043	13.95										
13536	40.863	13.76	13.955										
13548	41.867	14.049	13.953										
13560	42.872	13.688	13.948										
13572	43.876	13.778	13.951										
13584	44.881	13.976	13.952										
13596	45.886	13.873	13.954										
13608	46.89	14.361	13.955										
13620	47.895	14.34	13.951										
13632	48.899	14.129	13.951										
13644	49.904	13.644	13.954										
13656	50.909	14.07	13.954										
13668	51.914	13.834	13.952										
13680	52.918	14.058	13.954										
13692	53.922	14.068	13.952										
13704	54.928	14.584	13.959										
13716	55.932	14.116	13.954										
13728	56.936	13.091	13.949										
13740	57.941	13.838	13.953										
13752	58.945	13.84	13.951										
13764	59.95	13.57	13.953										
13776	60.955	14.177	13.956										
13788	61.959	14.471	13.95										
13800	62.964	13.697	13.949										
13812	63.969	14.221	13.956										
13824	64.973	13.846	13.95										
13836	65.978	13.813	13.951										
13848	66.982	13.985	13.953										
13860	67.986	14.27	13.951										
13872	68.991	14.448	13.957										
13884	69.996	14.364	13.953										
13896	71	14.311	13.951										
13908	72.005	13.782	13.949										
13920	73.009	13.852	13.951										
13932	74.014	13.436	13.952										
13944	75.018	14.164	13.954										
13956	76.023	13.934	13.949										
13968	77.027	14.156	13.951										
13980	78.032	14.368	13.954										
13992	79.036	12.918	13.947										
14004	80.041	13.503	13.95										
14016	81.045	13.995	13.951										
14028	82.049	13.602	13.949										
14040	83.054	13.728	13.957										
14052	84.058	13.874	13.945										
14064	85.063	13.675	13.952										
14076	86.067	14.148	13.948										
14088	87.072	14.34	13.953										
14100	88.077	13.815	13.954										
14112	89.081	13.59	13.951										
14124	90.085	13.295	13.947										
14136	91.09	14.066	13.945										
14148	92.096	14.131	13.965										
14160	93.098	14.364	13.947										
14172	94.104	13.685	13.949										
14184	95.108	14.209	13.952										
14196	96.112	14.11	13.95										
14208	97.117	13.899	13.957										
14220	98.121	13.433	13.95										
14232	99.126	14.183	13.947										
14244	100.13	13.97	13.951										
14256	101.135	14.116	13.952										
14268	102.14	13.677	13.953										
14280	103.144	14.11	13.954										
14292	104.148	13.779	13.95										
14304	105.153	14.718	13.955										
14316	106.158	13.774	13.954										
14328	107.162	13.753	13.951										
14340	108.167	13.881	13.949										
14352	109.171	13.795	13.948										
14364	110.176	13.954	13.951										
14376	111.18	13.64	13.958										
14388	112.185	13.772	13.951										
14400	113.189	14.036	13.948										
14412	114.194	14.837	13.954										
14424	115.198	13.834	13.952										
14436	116.203	13.618	13.954										
14448	117.208	13.641	13.953										
14460	118.212	14.043	13.949										
14472	119.216	14.495	13.952										
14484	120.221	14.142	13.954										
14496	121.226	14.648	13.952										
14508	122.23	13.583	13.95										
14520	123.235	14.068	13.954										
14532	124.239	14.033	13.953										
14544	125.244	14.174	13.955										
14556	126.248	13.429	13.952										
14568	127.253	14.234	13.952										
14580	128.258	14.84	13.954										
14592	129.262	14.473	13.957										
14604	130.267	13.785	13.951										
14616	131.272	13.547	13.958										
14628	132.276	13.842	13.952										
14640	133.28	13.079	13.952										
14652	134.286	14.208	13.959										
14664	135.291	14.069	13.955										
14676	136.295	14.025	13.949										
14688	137.3	13.791	13.948										
14700	138.305	14.024	13.956										
14712	139.31	13.604	13.959										
14724	140.315	12.924	13.954										
14736	141.319	14.651	13.956										
14748	142.325	13.991	13.958										
14760	143.33	14.575	13.962										
14772	144.335	13.847	13.957										
14784	145.34	13.752	13.959										
14796	146.345	13.919	13.958										
14808	147.35	13.835	13.959										
14820	148.356	13.978	13.966										
14832	149.36	13.993	13.96										
14844	150.366	13.813	13.961										
14856	151.371	13.968	13.966										
14868	152.377	14.425	13.964										
14880	153.383	13.583	13.965										
14892	154.388	13.873	13.964										
14904	155.393	13.573	13.965										
14916	156.399	12.626	13.964										
14928	157.405	14.138	13.97										
14940	158.41	14.078	13.965										
14952	159.416	13.736	13.966										
14964	160.422	14.387	13.969										
14976	161.428	13.916	13.97										
14988	162.434	13.875	13.972										
15000	163.439	14.481	13.974										
15012	164.445	14.223	13.972										
15024	165.452	13.914	13.971										
15036	166.458	14.505	13.976										
15048	167.464	13.939	13.972										
15060	168.471	14.021	13.976										
15072	169.476	14.122	13.975										
15084	170.483	13.914	13.977										
15096	171.49	14.142	13.984										
15108	172.496	13.736	13.977										
15120	173.502	13.543	13.977										
15132	174.509	13.378	13.978										
15144	175.516	14.012	13.983										
15156	176.523	13.983	13.982										
15168	177.529	13.703	13.982										
15180	178.536	14.066	13.983										
15192	179.543	14.292	13.983										
15204	180.551	14.145	13.988										
15216	181.557	13.56	13.986										
15228	182.564	13.651	13.988										
15240	183.572	14.034	13.992										
15252	184.579	13.939	13.993										
15264	185.586	14.074	13.99										
15276	186.593	14.566	13.989										
15288	187.601	14.175	13.991										
15300	188.608	14.226	13.988										
15312	189.616	14.099	13.998										
15324	190.623	13.703	13.993										
15336	191.631	13.733	13.99										
15348	192.639	13.927	13.993										
15360	193.646	13.898	13.997										
15372	194.654	13.79	13.994										
15384	195.662	13.666	13.996										
15396	196.669	14.125	13.997										
15408	197.677	14.367	13.998										
15420	198.686	14.172	14.004										
15432	199.693	13.808	13.999										
15444	200.702	13.882	13.998										
15456	201.71	13.648	14.001										
15468	202.718	14.036	14.005										
15480	203.726	13.863	14.003										
15492	204.734	13.891	14.003										
15504	205.743	14.124	14.006										
15516	206.751	14.557	14.007										
15528	207.76	13.882	14.01										
15540	208.769	13.418	14.008										
15552	209.777	13.571	14.005										
15564	210.786	14.411	14.01										
15576	211.795	14.572	14.016										
15588	212.804	13.675	14.011										
15600	213.812	14.202	14.009										
15612	214.821	14.528	14.009										
15624	215.831	14.551	14.02										
15636	216.84	13.921	14.013										
15648	217.85	13.738	14.015										
15660	218.858	14.142	14.015										
15672	219.868	13.595	14.018										
15684	220.878	13.605	14.021										
15696	221.886	13.588	14.018										
15708	222.896	13.868	14.019										
15720	223.906	14.243	14.02										
15732	224.915	13.984	14.022										
15744	225.925	14.397	14.021										
15756	226.934	13.858	14.019										
15768	227.944	13.87	14.025										
15780	228.954	14.05	14.027										
15792	229.964	13.961	14.026										
15804	230.974	14.16	14.022										
15816	231.983	14.098	14.024										
15828	232.993	14.422	14.027										
15840	234.004	13.865	14.029										
15852	235.013	14.452	14.032										
15864	236.023	14.337	14.025										
15876	237.033	13.527	14.025										
15888	238.044	13.888	14.031										
15900	239.054	13.724	14.028										
15912	240.063	14.164	14.025										
15924	241.074	15.437	14.032										
15936	242.084	14.585	14.033										
15948	243.095	13.636	14.031										
15960	244.105	14.42	14.028										
15972	245.115	13.92	14.031										
15984	246.125	13.73	14.031										
15996	247.136	13.76	14.036										
16008	248.146	13.968	14.031										
16020	249.156	14.002	14.034										
16032	250.166	13.68	14.031										
16044	251.177	13.987	14.035										
16056	252.187	13.959	14.035										
16068	253.197	15.329	14.032										
16080	254.208	14.074	14.035										
16092	255.219	13.876	14.035										
16104	256.229	13.914	14.035										
16116	257.24	13.491	14.032										
16128	258.25	13.841	14.034										
16140	259.261	13.998	14.035										
16152	260.271	14.169	14.038										
16164	261.282	14.103	14.034										
16176	262.292	14.508	14.037										
16188	263.302	14.126	14.035										
16200	264.313	13.402	14.035										
16212	265.324	15.105	14.038										
16224	266.334	14.026	14.033										
16236	267.345	13.488	14.034										
16248	268.356	14.127	14.036										
16260	269.366	13.907	14.038										
16272	270.376	13.82	14.034										
16284	271.388	13.92	14.036										
16296	272.398	14.935	14.037										
16308	273.409	13.782	14.036										
16320	274.42	13.745	14.036										
16332	275.43	14.416	14.038										
16344	276.441	13.439	14.039										
16356	277.451	13.755	14.035										
16368	278.463	13.961	14.042										
16380	279.473	14.206	14.035										
16392	280.483	14.547	14.027										
16404	281.495	14.393	14.049										
16416	282.504	14.689	14.041										
16428	283.516	14.152	14.038										
16440	284.527	14.518	14.037										
16452	285.537	13.209	14.04										
16464	286.548	13.368	14.037										
16476	287.559	13.811	14.036										
16488	288.57	15.139	14.042										
16500	289.58	14.349	14.039										
16512	290.591	13.847	14.038										
16524	291.602	14.658	14.041										
16536	292.613	14.075	14.04										
16548	293.624	14.16	14.04										
16560	294.634	13.922	14.037										
16572	295.646	13.783	14.038										
16584	296.656	14.023	14.037										
16596	297.667	13.112	14.037										
16608	298.678	13.686	14.04										
16620	299.688	14.415	14.04										
16632	300.699	14.662	14.04										
16644	301.71	13.46	14.035										
16656	302.72	13.594	14.038										
16668	303.731	14.226	14.038										
16680	304.742	13.895	14.036										
16692	305.753	13.698	14.038										
16704	306.763	14.289	14.037										
16716	307.774	14.32	14.037										
16728	308.785	14.371	14.04										
16740	309.795	14.08	14.037										
16752	310.805	13.885	14.036										
16764	311.816	13.791	14.038										
16776	312.827	13.501	14.036										
16788	313.837	14.178	14.035										
16800	314.848	13.607	14.032										
16812	315.858	14.288	14.037										
16824	316.869	14.783	14.036										
16836	317.88	14.101	14.035										
16848	318.89	14.879	14.037										
16860	319.901	13.719	14.036										
16872	320.911	12.92	14.033										
16884	321.922	13.863	14.034										
16896	322.932	13.905	14.037										
16908	323.943	14.412	14.037										
16920	324.954	13.755	14.035										
16932	325.964	14.416	14.038										
16944	326.975	13.959	14.034										
16956	327.985	14.654	14.037										
16968	328.996	13.903	14.038										
16980	330.007	13.937	14.038										
16992	331.017	14.775	14.037										
17004	332.028	13.468	14.033										
17016	333.039	14.038	14.041										
17028	334.049	13.958	14.033										
17040	335.06	13.914	14.036										
17052	336.07	14.362	14.038										
17064	337.081	14.303	14.04										
17076	338.091	13.713	14.034										
17088	339.102	13.497	14.037										
17100	340.113	14.071	14.037										
17112	341.124	13.79	14.038										
17124	342.135	13.829	14.038										
17136	343.145	14.907	14.038										
17148	344.156	14.413	14.036										
17160	345.166	14.368	14.038										
17172	346.177	14.074	14.042										
17184	347.188	13.761	14.037										
17196	348.198	13.758	14.037										
17208	349.209	12.825	14.033										
17220	350.22	13.667	14.04										
17232	351.231	14.573	14.038										
17244	352.242	14.275	14.041										
17256	353.252	14.993	14.044										
17268	354.263	14.359	14.034										
17280	355.275	13.783	14.042										
17292	356.285	13.915	14.037										
17304	357.296	13.867	14.041										
17316	358.307	14.057	14.039										
17328	359.318	13.794	14.043										
17340	0.229	14.431	14.044										
17352	1.239	14.043	14.038										
17364	2.251	14.087	14.037										
17376	3.261	14.382	14.045										
17388	4.273	14.234	14.042										
17400	5.284	14.089	14.041										
17412	6.295	14.537	14.042										
17424	7.306	13.938	14.042										
17436	8.317	13.553	14.04										
17448	9.328	14.51	14.043										
17460	10.339	13.891	14.042										
17472	11.35	14.365	14.043										
17484	12.361	13.85	14.04										
17496	13.372	13.626	14.042										
17508	14.383	13.995	14.042										
17520	15.394	13.908	14.041										
17532	16.406	13.64	14.045										
17544	17.417	13.846	14.043										
17556	18.428	14.494	14.046										
17568	19.438	13.243	14.038										
17580	20.45	13.921	14.048										
17592	21.461	14.595	14.047										
17604	22.472	14.105	14.042										
17616	23.483	13.778	14.042										
17628	24.495	14.05	14.044										
17640	25.506	14.238	14.046										
17652	26.517	14.134	14.044										
17664	27.528	14.083	14.045										
17676	28.539	14.163	14.045										
17688	29.551	14.072	14.042										
17700	30.563	13.9	14.047										
17712	31.573	14.216	14.045										
17724	32.584	13.968	14.042										
17736	33.596	13.828	14.048										
17748	34.608	13.852	14.048										
17760	35.618	14.102	14.047										
17772	36.63	13.224	14.043										
17784	37.641	14.128	14.049										
17796	38.652	14.29	14.05										
17808	39.664	14.109	14.044										
17820	40.675	14.376	14.047										
17832	41.687	14.386	14.051										
17844	42.698	14.313	14.047										
17856	43.71	13.75	14.047										
17868	44.721	14.262	14.047										
17880	45.733	14.301	14.05										
17892	46.744	13.823	14.046										
17904	47.756	14.129	14.047										
17916	48.767	14.184	14.047										
17928	49.778	14.511	14.047										
17940	50.79	13.802	14.049										
17952	51.802	13.983	14.049										
17964	52.813	14.115	14.048										
17976	53.824	14.044	14.046										
17988	54.836	14.063	14.051										
18000	55.847	13.516	14.049										
18012	56.858	14.894	14.048										
18024	57.87	13.412	14.045										
18036	58.881	14.117	14.051										
18048	59.893	14.005	14.047										
18060	60.904	13.246	14.046										
18072	61.916	14.581	14.05										
18084	62.927	13.961	14.048										
18096	63.939	14.209	14.047										
18108	64.95	14.284	14.047										
18120	65.961	13.987	14.048										
18132	66.973	14.374	14.05										
18144	67.984	14.061	14.047										
18156	68.996	14.258	14.048										
18168	70.007	13.935	14.047										
18180	71.018	13.661	14.045										
18192	72.031	13.614	14.05										
18204	73.041	13.755	14.049										
18216	74.052	14.391	14.048										
18228	75.064	14.177	14.042										
18240	76.076	14.005	14.052										
18252	77.087	14.696	14.05										
18264	78.099	13.86	14.046										
18276	79.11	14.373	14.046										
18288	80.121	14.276	14.049										
18300	81.133	13.064	14.044										
18312	82.144	14.101	14.046										
18324	83.156	13.711	14.047										
18336	84.168	13.876	14.057										
18348	85.178	14.375	14.047										
18360	86.19	14.045	14.044										
18372	87.201	14.308	14.049										
18384	88.213	14.105	14.048										
18396	89.225	13.608	14.051										
18408	90.236	13.522	14.048										
18420	91.248	14.292	14.053										
18432	92.26	14.469	14.066										
18444	93.27	13.998	14.044										
18456	94.282	13.632	14.045										
18468	95.293	14.127	14.048										
18480	96.305	14.194	14.048										
18492	97.317	14.512	14.053										
18504	98.328	14.384	14.05										
18516	99.34	13.802	14.048										
18528	100.352	14.417	14.053										
18540	101.363	14.377	14.055										
18552	102.375	14.298	14.051										
18564	103.386	14.32	14.049										
18576	104.398	14.049	14.05										
18588	105.41	14.77	14.055										
18600	106.422	13.747	14.05										
18612	107.433	13.659	14.049										
18624	108.445	14.01	14.052										
18636	109.457	14.034	14.051										
18648	110.469	14.148	14.055										
18660	111.48	13.926	14.053										
18672	112.492	14.291	14.052										
18684	113.504	14.484	14.054										
18696	114.516	14.956	14.059										
18708	115.528	13.8	14.052										
18720	116.539	13.522	14.052										
18732	117.551	13.984	14.052										
18744	118.563	13.69	14.055										
18756	119.575	13.688	14.052										
18768	120.587	14.308	14.053										
18780	121.598	13.791	14.051										
18792	122.611	14.692	14.059										
18804	123.623	14.631	14.057										
18816	124.634	14.148	14.054										
18828	125.647	13.791	14.055										
18840	126.659	14.196	14.056										
18852	127.671	14.006	14.057										
18864	128.683	13.671	14.056										
18876	129.695	14.24	14.056										
18888	130.707	14.22	14.055										
18900	131.72	13.833	14.061										
18912	132.732	14.044	14.056										
18924	133.744	13.953	14.058										
18936	134.756	13.806	14.057										
18948	135.769	13.868	14.065										
18960	136.781	14.835	14.061										
18972	137.793	14.335	14.06										
18984	138.806	12.622	14.059										
18996	139.818	14.511	14.066										
19008	140.83	14.361	14.064										
19020	141.843	13.97	14.06										
19032	142.856	14.038	14.062										
19044	143.869	13.958	14.065										
19056	144.881	14.234	14.065										
19068	145.894	13.581	14.065										
19080	146.907	14.664	14.07										
19092	147.92	14.724	14.072										
19104	148.933	13.494	14.064										
19116	149.946	13.872	14.067										
19128	150.959	14.343	14.074										
19140	151.972	14.424	14.072										
19152	152.986	13.766	14.07										
19164	153.999	13.609	14.072										
19176	155.012	14.29	14.074										
19188	156.025	14.174	14.073										
19200	157.039	13.828	14.076										
19212	158.052	13.865	14.076										
19224	159.066	14.492	14.076										
19236	160.08	14.553	14.079										
19248	161.094	13.762	14.08										
19260	162.107	13.355	14.079										
19272	163.121	14.048	14.081										
19284	164.135	14.355	14.082										
19296	165.15	13.761	14.084										
19308	166.163	14.41	14.084										
19320	167.177	14.507	14.082										
19332	168.191	14.122	14.087										
19344	169.206	14.286	14.091										
19356	170.22	14.18	14.087										
19368	171.235	13.219	14.087										
19380	172.249	13.384	14.086										
19392	173.264	14.073	14.095										
19404	174.278	14.896	14.093										
19416	175.293	14.06	14.089										
19428	176.308	13.733	14.089										
19440	177.323	14.434	14.101										
19452	178.338	14.341	14.098										
19464	179.353	13.749	14.093										
19476	180.368	13.802	14.093										
19488	181.383	13.812	14.102										
19500	182.398	13.594	14.097										
19512	183.413	14.441	14.099										
19524	184.429	14.812	14.106										
19536	185.444	14.37	14.106										
19548	186.459	14.077	14.099										
19560	187.475	14.127	14.104										
19572	188.49	14.446	14.103										
19584	189.506	14.099	14.108										
19596	190.521	13.888	14.102										
19608	191.537	13.877	14.104										
19620	192.553	13.452	14.104										
19632	193.569	14.524	14.114										
19644	194.584	15.267	14.108										
19656	195.6	13.94	14.11										
19668	196.616	14.126	14.108										
19680	197.632	13.906	14.114										
19692	198.648	14.528	14.112										
19704	199.665	14.064	14.112										
19716	200.681	13.671	14.106										
19728	201.697	14.055	14.12										
19740	202.713	14.275	14.114										
19752	203.729	14.226	14.114										
19764	204.746	15.85	14.118										
19776	205.763	14.068	14.122										
19788	206.779	13.27	14.118										
19800	207.796	14.505	14.118										
19812	208.812	14.037	14.119										
19824	209.83	14.039	14.125										
19836	210.846	13.991	14.119										
19848	211.863	13.684	14.123										
19860	212.88	14.44	14.125										
19872	213.897	13.997	14.123										
19884	214.915	14.511	14.133										
19896	215.931	14.269	14.124										
19908	216.948	13.127	14.127										
19920	217.966	13.958	14.13										
19932	218.983	14.493	14.129										
19944	220.001	13.878	14.129										
19956	221.018	14.249	14.131										
19968	222.036	13.921	14.132										
19980	223.053	14.172	14.135										
19992	224.071	14.438	14.133										
20004	225.088	14.397	14.134										
20016	226.106	14.057	14.134										
20028	227.124	14.01	14.134										
20040	228.141	14.558	14.134										
20052	229.16	14.123	14.136										
20064	230.178	13.809	14.137										
20076	231.195	14.252	14.135										
20088	232.213	14.012	14.137										
20100	233.231	14.507	14.141										
20112	234.249	14.002	14.138										
20124	235.267	14.252	14.138										
20136	236.285	14.502	14.142										
20148	237.304	14.188	14.144										
20160	238.321	13.901	14.139										
20172	239.339	13.628	14.134										
20184	240.358	12.838	14.141										
20196	241.376	14.741	14.146										
20208	242.394	14.726	14.142										
20220	243.412	13.92	14.141										
20232	244.431	14.796	14.142										
20244	245.45	14.049	14.148										
20256	246.468	14.373	14.148										
20268	247.486	14.176	14.145										
20280	248.505	13.591	14.143										
20292	249.523	14.207	14.146										
20304	250.541	14.021	14.144										
20316	251.559	14.471	14.143										
20328	252.578	15.812	14.144										
20340	253.597	13.867	14.147										
20352	254.615	13.951	14.147										
20364	255.633	13.932	14.143										
20376	256.652	13.398	14.143										
20388	257.671	13.715	14.146										
20400	258.689	13.525	14.143										
20412	259.707	14.154	14.141										
20424	260.726	14.829	14.148										
20436	261.744	14.201	14.147										
20448	262.763	13.537	14.141										
20460	263.781	14.192	14.145										
20472	264.8	13.927	14.145										
20484	265.818	12.671	14.145										
20496	266.837	13.563	14.142										
20508	267.856	14.108	14.147										
20520	268.874	14.548	14.15										
20532	269.893	14.545	14.149										
20544	270.911	14.349	14.143										
20556	271.93	15.017	14.15										
20568	272.948	13.711	14.15										
20580	273.967	14.474	14.148										
20592	274.985	14.307	14.146										
20604	276.004	13.981	14.146										
20616	277.023	14.198	14.146										
20628	278.042	14.431	14.153										
20640	279.059	15.194	14.139										
20652	280.078	14.18	14.142										
20664	281.098	13.762	14.148										
20676	282.116	13.706	14.141										
20688	283.134	14.044	14.148										
20700	284.153	13.787	14.145										
20712	285.172	13.65	14.147										
20724	286.19	13.908	14.149										
20736	287.209	14.169	14.15										
20748	288.227	15.073	14.151										
20760	289.246	14.008	14.147										
20772	290.265	14.171	14.144										
20784	291.284	14.906	14.154										
20796	292.303	14.188	14.149										
20808	293.321	13.493	14.148										
20820	294.34	13.686	14.145										
20832	295.358	13.268	14.148										
20844	296.377	14.502	14.151										
20856	297.396	14.804	14.146										
20868	298.415	14.944	14.148										
20880	299.433	14.423	14.148										
20892	300.452	14.085	14.147										
20904	301.47	15.422	14.152										
20916	302.489	14.423	14.148										
20928	303.508	13.25	14.144										
20940	304.526	14.115	14.149										
20952	305.545	14.04	14.146										
20964	306.563	14.594	14.148										
20976	307.582	14.341	14.143										
20988	308.601	14.213	14.147										
21000	309.619	14.099	14.148										
21012	310.637	14.275	14.147										
21024	311.656	14.452	14.147										
21036	312.675	13.741	14.145										
21048	313.693	13.796	14.144										
21060	314.711	14.303	14.144										
21072	315.73	14.513	14.145										
21084	316.748	13.77	14.143										
21096	317.767	14.49	14.145										
21108	318.785	13.852	14.144										
21120	319.804	14.641	14.148										
21132	320.822	15.212	14.146										
21144	321.84	13.747	14.141										
21156	322.859	13.726	14.144										
21168	323.878	13.65	14.148										
21180	324.895	13.995	14.143										
21192	325.914	14.569	14.144										
21204	326.932	13.574	14.14										
21216	327.951	14.399	14.149										
21228	328.969	14.928	14.146										
21240	329.988	14.031	14.144										
21252	331.007	14.836	14.145										
21264	332.025	13.72	14.146										
21276	333.043	13.833	14.147										
21288	334.062	14.314	14.144										
21300	335.08	14.157	14.143										
21312	336.099	13.906	14.144										
21324	337.117	13.801	14.145										
21336	338.135	14.273	14.145										
21348	339.154	14.812	14.147										
21360	340.173	13.928	14.144										
21372	341.191	13.626	14.143										
21384	342.209	14.171	14.146										
21396	343.228	14.453	14.148										
21408	344.246	14.076	14.144										
21420	345.265	14.396	14.146										
21432	346.283	14.115	14.146										
21444	347.302	14.075	14.149										
21456	348.32	14.439	14.143										
21468	349.339	14.027	14.143										
21480	350.357	13.513	14.143										
21492	351.376	14.515	14.149										
21504	352.394	14.203	14.147										
21516	353.412	14.355	14.14										
21528	354.431	14.125	14.135										
21540	355.45	14.129	14.153										
21552	356.468	13.755	14.148										
21564	357.487	14.439	14.146										
21576	358.505	14.09	14.142										
21588	359.525	14.048	14.15										
21600	0.443	13.918	14.148										
21612	1.461	13.979	14.147										
21624	2.48	14.513	14.146										
21636	3.499	13.914	14.148										
21648	4.517	13.909	14.149										
21660	5.536	14.169	14.149										
21672	6.554	14.497	14.148										
21684	7.573	13.652	14.145										
21696	8.592	14.066	14.149										
21708	9.61	14.172	14.147										
21720	10.629	13.848	14.148										
21732	11.648	14.047	14.146										
21744	12.667	14.152	14.147										
21756	13.685	14.021	14.148										
21768	14.704	14.937	14.15										
21780	15.723	14.505	14.148										
21792	16.742	14.313	14.15										
21804	17.76	14.067	14.151										
21816	18.779	13.699	14.15										
21828	19.797	14.557	14.15										
21840	20.816	14.049	14.146										
21852	21.835	13.698	14.146										
21864	22.854	14.41	14.153										
21876	23.873	14.11	14.152										
21888	24.891	14.503	14.149										
21900	25.91	14.487	14.148										
21912	26.929	13.664	14.15										
21924	27.948	13.865	14.152										
21936	28.966	14.121	14.147										
21948	29.985	14.119	14.151										
21960	31.004	13.905	14.149										
21972	32.023	14.063	14.151										
21984	33.041	14.071	14.149										
21996	34.06	14.437	14.148										
22008	35.079	14.081	14.15										
22020	36.098	14.274	14.147										
22032	37.116	14.595	14.151										
22044	38.135	14.253	14.151										
22056	39.154	14.212	14.148										
22068	40.173	14.155	14.148										
22080	41.192	14.077	14.15										
22092	42.211	13.884	14.152										
22104	43.23	15.078	14.152										
22116	44.248	14.463	14.148										
22128	45.267	13.787	14.15										
22140	46.286	14.149	14.154										
22152	47.305	14.34	14.153										
22164	48.324	14.301	14.151										
22176	49.343	13.576	14.145										
22188	50.362	13.828	14.154										
22200	51.381	14.114	14.153										
22212	52.399	14.216	14.151										
22224	53.418	14.373	14.15										
22236	54.437	13.914	14.151										
22248	55.456	13.489	14.151										
22260	56.474	14.124	14.149										
22272	57.493	13.89	14.149										
22284	58.512	14.081	14.149										
22296	59.531	14.225	14.148										
22308	60.55	14.779	14.152										
22320	61.568	14.291	14.149										
22332	62.587	14.129	14.147										
22344	63.606	14.216	14.148										
22356	64.624	13.757	14.148										
22368	65.643	14.072	14.15										
22380	66.662	14.071	14.146										
22392	67.68	14.085	14.146										
22404	68.699	13.876	14.149										
22416	69.718	14.656	14.152										
22428	70.736	14.795	14.15										
22440	71.755	14.016	14.147										
22452	72.774	13.138	14.143										
22464	73.793	13.83	14.152										
22476	74.811	13.578	14.148										
22488	75.83	14.234	14.147										
22500	76.848	14.341	14.145										
22512	77.867	14.117	14.148										
22524	78.886	14.443	14.151										
22536	79.904	14.279	14.146										
22548	80.923	14.35	14.148										
22560	81.942	14.187	14.148										
22572	82.96	13.686	14.146										
22584	83.978	14.545	14.146										
22596	84.997	14.54	14.146										
22608	86.016	13.707	14.146										
22620	87.034	14.024	14.144										
22632	88.053	13.987	14.146										
22644	89.071	14.569	14.151										
22656	90.09	14.565	14.146										
22668	91.109	14.058	14.149										
22680	92.127	14.1	14.158										
22692	93.145	14.511	14.142										
22704	94.164	13.955	14.148										
22716	95.183	13.767	14.144										
22728	96.202	13.222	14.142										
22740	97.22	14.017	14.153										
22752	98.238	14.333	14.149										
22764	99.257	14.267	14.146										
22776	100.275	14.88	14.146										
22788	101.295	14.209	14.151										
22800	102.313	14.247	14.15										
22812	103.332	14.226	14.148										
22824	104.35	14.589	14.146										
22836	105.369	13.922	14.15										
22848	106.387	13.699	14.147										
22860	107.406	14.249	14.145										
22872	108.424	15.112	14.15										
22884	109.443	14.145	14.148										
22896	110.462	14.275	14.147										
22908	111.48	14.119	14.147										
22920	112.499	14.032	14.148										
22932	113.518	14.066	14.148										
22944	114.536	14.052	14.144										
22956	115.555	13.859	14.145										
22968	116.573	14.776	14.151										
22980	117.592	13.37	14.143										
22992	118.611	14.025	14.147										
23004	119.629	14.339	14.149										
23016	120.648	13.832	14.148										
23028	121.666	14.467	14.148										
23040	122.685	14.135	14.142										
23052	123.704	14.251	14.15										
23064	124.723	14.511	14.152										
23076	125.741	13.724	14.148										
23088	126.759	14.372	14.148										
23100	127.779	15.115	14.148										
23112	128.797	13.863	14.153										
23124	129.815	14.934	14.146										
23136	130.834	14.13	14.143										
23148	131.853	14.439	14.151										
23160	132.873	13.873	14.152										
23172	133.891	13.481	14.149										
23184	134.91	13.977	14.152										
23196	135.929	14.041	14.155										
23208	136.948	14.287	14.15										
23220	137.967	14.72	14.151										
23232	138.985	14.925	14.153										
23244	140.005	14.368	14.156										
23256	141.024	13.323	14.152										
23268	142.043	13.991	14.15										
23280	143.062	13.865	14.152										
23292	144.081	14.101	14.156										
23304	145.1	13.959	14.15										
23316	146.119	14.313	14.153										
23328	147.139	14.243	14.157										
23340	148.158	14.52	14.162										
23352	149.177	14.305	14.156										
23364	150.197	14.143	14.158										
23376	151.216	13.622	14.156										
23388	152.236	13.573	14.161										
23400	153.255	14.467	14.16										
23412	154.275	14.273	14.16										
23424	155.295	14.245	14.161										
23436	156.315	13.953	14.163										
23448	157.334	14.496	14.165										
23460	158.354	14.247	14.163										
23472	159.374	14.329	14.167										
23484	160.394	14.563	14.164										
23496	161.414	14.071	14.165										
23508	162.434	14.527	14.168										
23520	163.454	14.12	14.168										
23532	164.474	13.293	14.165										
23544	165.494	14.503	14.169										
23556	166.515	14.245	14.168										
23568	167.535	14.662	14.175										
23580	168.556	14.65	14.173										
23592	169.576	13.939	14.17										
23604	170.596	14.216	14.175										
23616	171.617	13.888	14.175										
23628	172.637	13.806	14.176										
23640	173.658	14.213	14.175										
23652	174.679	13.894	14.177										
23664	175.7	14.103	14.176										
23676	176.721	14.15	14.176										
23688	177.742	14.281	14.18										
23700	178.763	14.082	14.182										
23712	179.783	14.565	14.179										
23724	180.805	14.22	14.178										
23736	181.826	13.519	14.182										
23748	182.847	14.334	14.189										
23760	183.868	13.999	14.183										
23772	184.89	14.215	14.181										
23784	185.911	14.699	14.184										
23796	186.933	13.85	14.189										
23808	187.954	14.313	14.187										
23820	188.976	14.386	14.187										
23832	189.997	14.845	14.191										
23844	191.019	14.058	14.187										
23856	192.041	13.634	14.187										
23868	193.063	14.181	14.189										
23880	194.084	14.277	14.192										
23892	195.106	14.199	14.193										
23904	196.128	14.246	14.19										
23916	197.15	14.787	14.194										
23928	198.172	14.402	14.198										
23940	199.194	13.797	14.195										
23952	200.216	14.247	14.195										
23964	201.238	14.325	14.198										
23976	202.261	13.92	14.197										
23988	203.283	13.82	14.196										
24000	204.305	14.053	14.201										
24012	205.328	14.369	14.204										
24024	206.35	14.433	14.198										
24036	207.373	14.263	14.201										
24048	208.396	14.689	14.203										
24060	209.419	14.538	14.21										
24072	210.442	15.721	14.208										
24084	211.464	14.405	14.205										
24096	212.487	14.129	14.202										
24108	213.511	13.724	14.205										
24120	214.534	13.835	14.215										
24132	215.556	14.162	14.21										
24144	216.58	14.006	14.215										
24156	217.603	14.365	14.21										
24168	218.626	14.645	14.208										
24180	219.649	14.221	14.212										
24192	220.673	14.073	14.218										
24204	221.696	14.335	14.215										
24216	222.72	14.352	14.212										
24228	223.744	14.015	14.218										
24240	224.767	14.173	14.217										
24252	225.791	13.519	14.212										
24264	226.814	13.515	14.212										
24276	227.839	14.376	14.221										
24288	228.862	14.291	14.222										
24300	229.885	13.932	14.216										
24312	230.91	14.41	14.219										
24324	231.934	14.104	14.224										
24336	232.957	14.028	14.22										
24348	233.981	14.593	14.222										
24360	235.006	14.426	14.223										
24372	236.03	14.09	14.221										
24384	237.053	14.265	14.221										
24396	238.077	13.938	14.222										
24408	239.102	14.248	14.227										
24420	240.126	14.24	14.222										
24432	241.15	14.241	14.222										
24444	242.174	14.436	14.227										
24456	243.199	13.852	14.226										
24468	244.222	14.101	14.222										
24480	245.247	15.157	14.227										
24492	246.272	14.92	14.232										
24504	247.296	13.636	14.224										
24516	248.32	13.509	14.219										
24528	249.344	13.589	14.224										
24540	250.369	13.989	14.23										
24552	251.393	13.631	14.226										
24564	252.418	14.112	14.229										
24576	253.442	15.068	14.23										
24588	254.466	14.638	14.227										
24600	255.491	14.175	14.226										
24612	256.515	14	14.229										
24624	257.54	14.256	14.232										
24636	258.565	15.753	14.232										
24648	259.589	13.881	14.228										
24660	260.613	13.691	14.227										
24672	261.638	13.947	14.229										
24684	262.662	13.798	14.226										
24696	263.687	14.09	14.228										
24708	264.711	15.133	14.234										
24720	265.736	13.966	14.228										
24732	266.76	14.791	14.228										
24744	267.785	14.18	14.229										
24756	268.81	14.016	14.23										
24768	269.834	13.972	14.23										
24780	270.859	13.764	14.228										
24792	271.883	13.618	14.231										
24804	272.908	13.557	14.23										
24816	273.932	13.889	14.229										
24828	274.957	13.406	14.226										
24840	275.982	14.767	14.235										
24852	277.006	14.621	14.234										
24864	278.031	14.299	14.235										
24876	279.057	15.099	14.247										
24888	280.08	14.844	14.227										
24900	281.105	14.606	14.227										
24912	282.13	15.935	14.235										
24924	283.154	14.057	14.228										
24936	284.179	13.478	14.23										
24948	285.204	14.615	14.236										
24960	286.228	13.407	14.23										
24972	287.253	14.104	14.232										
24984	288.279	13.792	14.234										
24996	289.303	14.38	14.232										
25008	290.328	15.081	14.236										
25020	291.352	13.485	14.23										
25032	292.377	13.972	14.233										
25044	293.402	14.703	14.234										
25056	294.427	14.76	14.233										
25068	295.452	13.619	14.234										
25080	296.477	14.071	14.234										
25092	297.501	13.468	14.23										
25104	298.526	13.877	14.231										
25116	299.551	14.286	14.229										
25128	300.576	14.297	14.237										
25140	301.6	14.201	14.233										
25152	302.625	14.774	14.236										
25164	303.65	14.7	14.236										
25176	304.674	14.34	14.23										
25188	305.7	14.494	14.236										
25200	306.724	14.876	14.231										
25212	307.749	13.931	14.227										
25224	308.774	14.282	14.234										
25236	309.798	13.907	14.229										
25248	310.823	13.943	14.23										
25260	311.848	13.782	14.229										
25272	312.873	13.844	14.232										
25284	313.897	13.903	14.231										
25296	314.922	13.543	14.229										
25308	315.947	14.664	14.234										
25320	316.971	15.01	14.233										
25332	317.996	15.172	14.233										
25344	319.021	14.276	14.23										
25356	320.046	13.974	14.235										
25368	321.07	14.137	14.233										
25380	322.095	14.342	14.232										
25392	323.119	14.009	14.232										
25404	324.144	13.863	14.23										
25416	325.169	14.306	14.229										
25428	326.194	14.044	14.232										
25440	327.219	13.732	14.236										
25452	328.243	13.885	14.229										
25464	329.268	14.129	14.232										
25476	330.292	15.343	14.235										
25488	331.318	14.198	14.232										
25500	332.342	14.432	14.234										
25512	333.367	14.165	14.232										
25524	334.392	13.972	14.234										
25536	335.416	14.424	14.232										
25548	336.441	14.245	14.233										
25560	337.466	14.039	14.231										
25572	338.491	14.185	14.235										
25584	339.516	13.477	14.232										
25596	340.54	14.492	14.234										
25608	341.565	14.712	14.236										
25620	342.59	14.123	14.232										
25632	343.615	14.312	14.23										
25644	344.64	14.308	14.238										
25656	345.665	14.288	14.237										
25668	346.69	14.165	14.232										
25680	347.714	14.447	14.234										
25692	348.739	14.351	14.236										
25704	349.764	14.082	14.232										
25716	350.789	13.772	14.235										
25728	351.815	13.898	14.236										
25740	352.84	14.431	14.249										
25752	353.864	15.076	14.238										
25764	354.889	14.257	14.229										
25776	355.914	14.244	14.234										
25788	356.939	14.129	14.238										
25800	357.964	14.165	14.235										
25812	358.989	14.402	14.238										
25824	360.014	14.47	14.236										
25836	0.939	15.448	14.24										
25848	1.964	14.505	14.236										
25860	2.989	13.201	14.232										
25872	4.015	13.945	14.24										
25884	5.04	13.986	14.24										
25896	6.065	14	14.236										
25908	7.09	13.899	14.238										
25920	8.115	14.333	14.236										
25932	9.14	13.959	14.235										
25944	10.165	14.219	14.237										
25956	11.191	14.34	14.242										
25968	12.216	14.261	14.241										
25980	13.241	14.301	14.237										
25992	14.266	14.563	14.236										
26004	15.291	14.512	14.239										
26016	16.316	14.284	14.238										
26028	17.341	14.56	14.238										
26040	18.367	14.709	14.237										
26052	19.392	14.221	14.242										
26064	20.417	14.491	14.241										
26076	21.442	14.064	14.238										
26088	22.468	14.184	14.239										
26100	23.493	14.128	14.239										
26112	24.518	14.699	14.238										
26124	25.543	14.554	14.239										
26136	26.568	13.114	14.237										
26148	27.594	14.702	14.238										
26160	28.619	14.513	14.239										
26172	29.645	14.188	14.24										
26184	30.67	13.711	14.242										
26196	31.695	14.397	14.24										
26208	32.72	13.954	14.237										
26220	33.745	14.269	14.239										
26232	34.771	14.3	14.238										
26244	35.796	13.391	14.239										
26256	36.822	14.54	14.243										
26268	37.847	14.462	14.243										
26280	38.872	14.274	14.239										
26292	39.897	14.266	14.241										
26304	40.922	14.558	14.24										
26316	41.948	14.225	14.237										
26328	42.973	14.445	14.244										
26340	43.998	14.439	14.245										
26352	45.024	13.933	14.239										
26364	46.049	14.293	14.239										
26376	47.074	14.158	14.239										
26388	48.099	14.204	14.238										
26400	49.125	13.893	14.236										
26412	50.15	13.86	14.239										
26424	51.175	14.737	14.242										
26436	52.2	14.548	14.241										
26448	53.225	14.585	14.237										
26460	54.25	14.388	14.236										
26472	55.276	13.931	14.238										
26484	56.301	14.224	14.237										
26496	57.326	14.353	14.238										
26508	58.351	14.54	14.238										
26520	59.376	14.563	14.237										
26532	60.401	14.747	14.236										
26544	61.426	13.855	14.234										
26556	62.451	13.364	14.238										
26568	63.476	13.967	14.238										
26580	64.501	14.2	14.236										
26592	65.526	14.15	14.236										
26604	66.551	14.268	14.236										
26616	67.576	14.719	14.236										
26628	68.601	13.603	14.23										
26640	69.626	14.385	14.241										
26652	70.65	14.545	14.236										
26664	71.675	14.381	14.233										
26676	72.7	15.15	14.234										
26688	73.725	14.234	14.234										
26700	74.75	14.412	14.233										
26712	75.775	14.362	14.236										
26724	76.8	14.532	14.237										
26736	77.824	13.99	14.233										
26748	78.849	14.119	14.232										
26760	79.874	13.956	14.231										
26772	80.899	13.986	14.235										
26784	81.923	13.945	14.231										
26796	82.948	14.252	14.233										
26808	83.974	13.996	14.244										
26820	84.998	13.76	14.24										
26832	86.022	14.001	14.228										
26844	87.047	14.906	14.231										
26856	88.072	14.284	14.238										
26868	89.097	14.707	14.233										
26880	90.121	14.398	14.233										
26892	91.145	14.89	14.23										
26904	92.169	13.829	14.208										
26916	93.196	13.32	14.233										
26928	94.221	13.818	14.235										
26940	95.245	14.661	14.239										
26952	96.27	14.807	14.232										
26964	97.294	14.21	14.23										
26976	98.319	13.878	14.232										
26988	99.344	14.36	14.234										
27000	100.369	14.49	14.23										
27012	101.394	14.522	14.234										
27024	102.419	14.138	14.238										
27036	103.443	14.554	14.232										
27048	104.468	14.101	14.227										
27060	105.493	14.025	14.231										
27072	106.518	13.852	14.236										
27084	107.542	13.318	14.23										
27096	108.567	13.399	14.229										
27108	109.592	14.167	14.237										
27120	110.617	14.427	14.233										
27132	111.641	14.258	14.231										
27144	112.666	14.773	14.232										
27156	113.691	14.412	14.237										
27168	114.716	15.049	14.239										
27180	115.74	14.483	14.234										
27192	116.765	14.469	14.233										
27204	117.79	14.413	14.236										
27216	118.814	14.73	14.229										
27228	119.84	14.722	14.235										
27240	120.865	13.555	14.231										
27252	121.889	14.149	14.233										
27264	122.914	14.551	14.233										
27276	123.939	14.231	14.232										
27288	124.964	14.041	14.234										
27300	125.989	13.329	14.231										
27312	127.013	14.03	14.23										
27324	128.038	14.458	14.236										
27336	129.063	13.693	14.234										
27348	130.088	14.757	14.237										
27360	131.112	15.262	14.23										
27372	132.138	14.861	14.238										
27384	133.162	14.133	14.234										
27396	134.187	14.525	14.236										
27408	135.212	14.119	14.234										
27420	136.237	14.444	14.234										
27432	137.262	14.015	14.233										
27444	138.287	14.076	14.239										
27456	139.312	14.355	14.239										
27468	140.337	14.032	14.234										
27480	141.362	14.241	14.236										
27492	142.387	14.084	14.236										
27504	143.412	13.895	14.236										
27516	144.437	14.148	14.234										
27528	145.463	15.008	14.241										
27540	146.488	14.872	14.244										
27552	147.513	14.542	14.239										
27564	148.539	14.346	14.24										
27576	149.564	14.237	14.239										
27588	150.59	13.777	14.242										
27600	151.615	13.948	14.241										
27612	152.64	14.303	14.244										
27624	153.666	13.715	14.244										
27636	154.691	14.828	14.243										
27648	155.717	14.549	14.244										
27660	156.742	13.224	14.242										
27672	157.769	13.952	14.248										
27684	158.794	14.405	14.247										
27696	159.82	14.396	14.247										
27708	160.846	14.746	14.253										
27720	161.872	14.509	14.249										
27732	162.898	14.48	14.249										
27744	163.924	14.753	14.249										
27756	164.95	13.951	14.255										
27768	165.976	13.943	14.252										
27780	167.002	13.96	14.251										
27792	168.029	13.956	14.253										
27804	169.055	14.641	14.252										
27816	170.081	14.906	14.255										
27828	171.108	14.085	14.252										
27840	172.135	14.416	14.26										
27852	173.161	14.635	14.258										
27864	174.187	14.489	14.257										
27876	175.214	14.388	14.259										
27888	176.24	14.16	14.258										
27900	177.267	14.588	14.258										
27912	178.294	14.645	14.26										
27924	179.321	13.964	14.264										
27936	180.348	13.165	14.261										
27948	181.374	14.242	14.26										
27960	182.401	14.169	14.26										
27972	183.429	14.277	14.268										
27984	184.456	14.343	14.265										
27996	185.482	14.875	14.261										
28008	186.51	14.182	14.268										
28020	187.537	14.781	14.268										
28032	188.564	14.573	14.267										
28044	189.591	14.664	14.269										
28056	190.618	13.663	14.264										
28068	191.646	13.981	14.266										
28080	192.673	15.268	14.267										
28092	193.701	13.976	14.272										
28104	194.728	14.03	14.27										
28116	195.756	14.22	14.27										
28128	196.783	14.121	14.273										
28140	197.811	14.056	14.269										
28152	198.838	14.222	14.27										
28164	199.866	13.549	14.271										
28176	200.894	14.141	14.276										
28188	201.921	14.248	14.273										
28200	202.949	14.925	14.276										
28212	203.977	14.987	14.281										
28224	205.005	14.244	14.273										
28236	206.033	13.806	14.274										
28248	207.06	14.643	14.278										
28260	208.089	14.063	14.279										
28272	209.117	14.08	14.277										
28284	210.145	14.236	14.283										
28296	211.174	14.254	14.284										
28308	212.202	14.314	14.282										
28320	213.229	14.203	14.276										
28332	214.258	13.933	14.277										
28344	215.287	14.023	14.286										
28356	216.315	14.167	14.279										
28368	217.343	15.029	14.286										
28380	218.372	14.77	14.29										
28392	219.401	14.541	14.285										
28404	220.429	14.693	14.285										
28416	221.458	14.517	14.289										
28428	222.486	13.941	14.282										
28440	223.515	14.508	14.284										
28452	224.544	13.902	14.286										
28464	225.573	14.127	14.29										
28476	226.602	14.226	14.289										
28488	227.63	14.442	14.289										
28500	228.659	14.034	14.291										
28512	229.688	13.747	14.29										
28524	230.717	14.013	14.286										
28536	231.746	14.49	14.289										
28548	232.775	14.019	14.291										
28560	233.803	14.515	14.288										
28572	234.832	14.457	14.291										
28584	235.862	13.971	14.296										
28596	236.891	15.754	14.294										
28608	237.919	14.396	14.289										
28620	238.948	14.312	14.291										
28632	239.978	14.912	14.294										
28644	241.007	13.973	14.288										
28656	242.036	13.603	14.287										
28668	243.065	14.765	14.299										
28680	244.094	13.714	14.292										
28692	245.123	14.124	14.29										
28704	246.152	14.477	14.291										
28716	247.181	14.296	14.289										
28728	248.209	14.813	14.286										
28740	249.239	13.477	14.29										
28752	250.268	14.297	14.296										
28764	251.297	14.514	14.29										
28776	252.326	13.544	14.29										
28788	253.355	14.686	14.295										
28800	254.384	15.036	14.295										
28812	255.413	14.019	14.288										
28824	256.442	14.273	14.29										
28836	257.471	14.072	14.293										
28848	258.5	13.575	14.287										
28860	259.528	13.951	14.289										
28872	260.558	13.672	14.294										
28884	261.586	14.204	14.29										
28896	262.615	14.398	14.288										
28908	263.644	14.047	14.288										
28920	264.673	14.563	14.291										
28932	265.701	15.028	14.29										
28944	266.731	14.125	14.286										
28956	267.759	14.528	14.292										
28968	268.788	15.076	14.293										
28980	269.817	14.6	14.288										
28992	270.846	14.149	14.291										
29004	271.874	13.966	14.289										
29016	272.903	15.301	14.287										
29028	273.932	14.58	14.289										
29040	274.961	14.217	14.29										
29052	275.99	13.833	14.286										
29064	277.019	13.926	14.286										
29076	278.047	14.047	14.286										
29088	279.075	14.108	14.285										
29100	280.105	13.605	14.289										
29112	281.132	14.173	14.284										
29124	282.161	13.971	14.285										
29136	283.19	14.638	14.286										
29148	284.218	14.884	14.286										
29160	285.247	14.029	14.289										
29172	286.276	13.943	14.286										
29184	287.304	14.605	14.287										
29196	288.333	15.328	14.285										
29208	289.362	15.144	14.289										
29220	290.39	14.268	14.285										
29232	291.419	13.94	14.283										
29244	292.448	13.677	14.287										
29256	293.476	13.648	14.284										
29268	294.504	14.034	14.285										
29280	295.533	14.012	14.283										
29292	296.561	12.844	14.281										
29304	297.589	14.583	14.284										
29316	298.618	15.126	14.283										
29328	299.646	14.507	14.283										
29340	300.674	14.239	14.285										
29352	301.702	14.583	14.28										
29364	302.73	14.299	14.283										
29376	303.758	14.996	14.281										
29388	304.787	14.665	14.283										
29400	305.815	13.96	14.28										
29412	306.843	13.961	14.278										
29424	307.871	13.922	14.279										
29436	308.899	15.37	14.277										
29448	309.927	13.948	14.279										
29460	310.955	14.185	14.279										
29472	311.982	13.938	14.275										
29484	313.01	14.603	14.277										
29496	314.038	14.009	14.272										
29508	315.066	15.017	14.276										
29520	316.094	14.557	14.275										
29532	317.121	14.464	14.275										
29544	318.149	14.58	14.272										
29556	319.177	14.157	14.272										
29568	320.204	14.182	14.272										
29580	321.232	13.575	14.269										
29592	322.26	13.864	14.272										
29604	323.287	13.855	14.268										
29616	324.315	14.347	14.275										
29628	325.342	13.983	14.269										
29640	326.37	14.315	14.271										
29652	327.397	14.803	14.274										
29664	328.424	14.205	14.267										
29676	329.452	14.54	14.27										
29688	330.479	14.327	14.267										
29700	331.507	14.318	14.272										
29712	332.534	15.095	14.272										
29724	333.561	14.193	14.268										
29736	334.589	14.092	14.27										
29748	335.616	14.348	14.266										
29760	336.643	14.604	14.266										
29772	337.671	14.036	14.266										
29784	338.698	14.516	14.272										
29796	339.725	14.206	14.269										
29808	340.752	14.527	14.268										
29820	341.78	14.57	14.27										
29832	342.807	15.082	14.266										
29844	343.834	14.468	14.265										
29856	344.861	12.767	14.264										
29868	345.889	14.044	14.269										
29880	346.916	13.836	14.266										
29892	347.943	14.075	14.266										
29904	348.97	14.117	14.267										
29916	349.997	14.622	14.265										
29928	351.024	14.228	14.264										
29940	352.051	14.469	14.258										
29952	353.079	13.773	14.264										
29964	354.106	14.163	14.279										
29976	355.132	13.867	14.263										
29988	356.16	13.968	14.266										
30000	357.186	14.922	14.264										
30012	358.214	14.366	14.264										
30024	359.241	14.125	14.262										
30036	0.168	14.03	14.265										
30048	1.195	14.42	14.266										
30060	2.222	14.258	14.264										
30072	3.249	14.605	14.267										
30084	4.276	15.027	14.267										
30096	5.303	14.386	14.264										
30108	6.33	14.639	14.261										
30120	7.357	14.047	14.264										
30132	8.384	13.58	14.264										
30144	9.411	14.177	14.261										
30156	10.438	14.382	14.263										
30168	11.465	14.312	14.262										
30180	12.491	14.136	14.262										
30192	13.519	14.601	14.262										
30204	14.546	14.162	14.263										
30216	15.572	14.315	14.263										
30228	16.599	14.038	14.262										
30240	17.626	14.186	14.264										
30252	18.653	13.431	14.264										
30264	19.679	14.212	14.26										
30276	20.706	15.059	14.26										
30288	21.733	13.961	14.263										
30300	22.76	14.198	14.261										
30312	23.787	14.565	14.261										
30324	24.813	14.574	14.26										
30336	25.84	14.424	14.261										
30348	26.867	14.483	14.26										
30360	27.894	14.257	14.26										
30372	28.921	13.999	14.26										
30384	29.948	13.949	14.262										
30396	30.974	14.835	14.261										
30408	32.001	14.648	14.26										
30420	33.027	13.856	14.26										
30432	34.054	14.403	14.259										
30444	35.08	14.329	14.255										
30456	36.108	13.962	14.26										
30468	37.134	13.788	14.259										
30480	38.16	14.306	14.258										
30492	39.187	14.264	14.259										
30504	40.214	14.023	14.258										
30516	41.24	14.246	14.256										
30528	42.267	13.96	14.256										
30540	43.294	14.112	14.26										
30552	44.32	14.373	14.26										
30564	45.347	14.343	14.259										
30576	46.373	14.155	14.258										
30588	47.4	14.542	14.258										
30600	48.426	14.382	14.253										
30612	49.452	13.956	14.252										
30624	50.479	14.056	14.26										
30636	51.506	14.08	14.258										
30648	52.532	14.412	14.256										
30660	53.558	14.494	14.257										
30672	54.585	15.445	14.256										
30684	55.611	14.312	14.252										
30696	56.637	12.857	14.251										
30708	57.664	14.153	14.257										
30720	58.69	13.917	14.254										
30732	59.716	14.261	14.252										
30744	60.742	14.402	14.254										
30756	61.768	14.552	14.252										
30768	62.794	13.872	14.249										
30780	63.82	14.065	14.248										
30792	64.847	13.904	14.255										
30804	65.872	13.997	14.252										
30816	66.898	14	14.25										
30828	67.924	14.289	14.251										
30840	68.95	14.441	14.25										
30852	69.976	14.367	14.248										
30864	71.002	14.028	14.247										
30876	72.028	14.561	14.253										
30888	73.054	14.406	14.249										
30900	74.08	14.225	14.249										
30912	75.105	13.999	14.246										
30924	76.131	14.365	14.247										
30936	77.157	14.447	14.245										
30948	78.183	14.878	14.247										
30960	79.209	14.274	14.249										
30972	80.234	13.368	14.245										
30984	81.26	14.424	14.245										
30996	82.285	14.214	14.241										
31008	83.312	13.689	14.25										
31020	84.337	14.079	14.248										
31032	85.361	14.381	14.236										
31044	86.388	14.425	14.248										
31056	87.413	14.422	14.243										
31068	88.438	14.253	14.241										
31080	89.464	14.208	14.243										
31092	90.49	13.907	14.243										
31104	91.514	13.469	14.231										
31116	92.541	14.335	14.251										
31128	93.566	13.977	14.247										
31140	94.591	14.528	14.241										
31152	95.616	14.555	14.241										
31164	96.641	14.807	14.243										
31176	97.668	14.102	14.244										
31188	98.692	13.557	14.238										
31200	99.717	14.449	14.24										
31212	100.743	14.473	14.244										
31224	101.768	14.379	14.238										
31236	102.793	13.88	14.236										
31248	103.819	14.409	14.238										
31260	104.844	14.366	14.243										
31272	105.87	14.506	14.242										
31284	106.894	14.165	14.237										
31296	107.92	13.697	14.238										
31308	108.945	14.045	14.237										
31320	109.97	14.384	14.236										
31332	110.995	14.219	14.236										
31344	112.021	14.614	14.243										
31356	113.046	15.221	14.24										
31368	114.071	14.564	14.238										
31380	115.096	13.595	14.236										
31392	116.121	14.22	14.242										
31404	117.146	13.592	14.234										
31416	118.17	14.46	14.231										
31428	119.196	14.443	14.241										
31440	120.221	14.645	14.241										
31452	121.246	14.548	14.234										
31464	122.271	14.634	14.235										
31476	123.296	13.981	14.241										
31488	124.321	13.663	14.234										
31500	125.346	13.966	14.235										
31512	126.371	14.208	14.238										
31524	127.396	14.917	14.235										
31536	128.421	15.091	14.238										
31548	129.446	14.531	14.241										
31560	130.471	14.471	14.238										
31572	131.496	13.724	14.234										
31584	132.521	13.982	14.236										
31596	133.546	14.101	14.236										
31608	134.571	14.337	14.238										
31620	135.595	14.296	14.229										
31632	136.621	15.128	14.239										
31644	137.646	14.53	14.24										
31656	138.671	12.733	14.235										
31668	139.696	14.027	14.236										
31680	140.721	13.941	14.236										
31692	141.747	13.805	14.237										
31704	142.771	14.244	14.237										
31716	143.796	14.263	14.237										
31728	144.822	14.506	14.241										
31740	145.847	15.199	14.241										
31752	146.872	13.935	14.24										
31764	147.898	14.297	14.239										
31776	148.923	13.961	14.241										
31788	149.949	13.793	14.238										
31800	150.974	14.75	14.246										
31812	151.999	15.063	14.244										
31824	153.025	14.365	14.239										
31836	154.05	14.463	14.243										
31848	155.076	14.45	14.243										
31860	156.102	13.718	14.246										
31872	157.127	13.833	14.242										
31884	158.153	14.082	14.245										
31896	159.178	14.397	14.247										
31908	160.204	14.61	14.245										
31920	161.23	14.369	14.245										
31932	162.256	12.795	14.242										
31944	163.282	14.3	14.252										
31956	164.307	14.578	14.25										
31968	165.333	14.245	14.249										
31980	166.359	14.438	14.251										
31992	167.385	14.082	14.246										
32004	168.412	14.443	14.251										
32016	169.437	14.44	14.25										
32028	170.464	14.312	14.258										
32040	171.49	14.922	14.255										
32052	172.516	14.38	14.253										
32064	173.543	14.021	14.255										
32076	174.569	14.738	14.255										
32088	175.595	14.363	14.255										
32100	176.622	13.981	14.255										
32112	177.649	14.562	14.261										
32124	178.675	14.579	14.258										
32136	179.701	14.409	14.258										
32148	180.728	14.288	14.258										
32160	181.755	13.703	14.258										
32172	182.782	14.62	14.259										
32184	183.809	13.794	14.265										
32196	184.835	13.774	14.259										
32208	185.862	13.794	14.258										
32220	186.889	14.513	14.263										
32232	187.916	14.616	14.264										
32244	188.943	14.363	14.264										
32256	189.97	14.072	14.26										
32268	190.997	13.575	14.262										
32280	192.024	14.647	14.267										
32292	193.05	14.272	14.264										
32304	194.078	14.362	14.264										
32316	195.105	14.791	14.269										
32328	196.132	13.834	14.264										
32340	197.16	14.464	14.267										
32352	198.187	15.743	14.27										
32364	199.215	13.818	14.273										
32376	200.242	14.023	14.269										
32388	201.269	14.388	14.269										
32400	202.297	14.314	14.272										
32412	203.324	14.45	14.27										
32424	204.352	14.596	14.271										
32436	205.38	14.346	14.27										
32448	206.408	14.326	14.277										
32460	207.435	14.01	14.274										
32472	208.463	14.418	14.275										
32484	209.491	14.287	14.28										
32496	210.519	13.579	14.273										
32508	211.547	14.497	14.28										
32520	212.574	14.359	14.274										
32532	213.604	13.916	14.278										
32544	214.632	14.173	14.288										
32556	215.66	14.434	14.284										
32568	216.688	14.313	14.285										
32580	217.716	14.976	14.281										
32592	218.744	13.464	14.282										
32604	219.773	14.31	14.282										
32616	220.802	13.848	14.284										
32628	221.83	14.207	14.283										
32640	222.858	14.71	14.286										
32652	223.887	14.77	14.291										
32664	224.915	14.19	14.282										
32676	225.944	14.306	14.284										
32688	226.973	14.219	14.288										
32700	228.001	13.903	14.283										
32712	229.03	13.939	14.286										
32724	230.058	13.95	14.285										
32736	231.088	15.195	14.291										
32748	232.116	15.104	14.29										
32760	233.145	14.231	14.287										
32772	234.174	14.375	14.29										
32784	235.203	13.635	14.287										
32796	236.231	13.909	14.285										
32808	237.26	14.18	14.29										
32820	238.29	14.201	14.294										
32832	239.318	13.885	14.289										
32844	240.347	14.571	14.291										
32856	241.376	14.735	14.295										
32868	242.405	15.133	14.294										
32880	243.434	14.131	14.288										
32892	244.463	13.524	14.291										
32904	245.492	14.032	14.294										
32916	246.521	14.116	14.287										
32928	247.55	13.99	14.291										
32940	248.579	14.537	14.295										
32952	249.609	14.393	14.296										
32964	250.637	14.454	14.289										
32976	251.666	14.585	14.292										
32988	252.696	14.677	14.294										
33000	253.724	14.552	14.287										
33012	254.753	12.454	14.287										
33024	255.783	13.994	14.295										
33036	256.812	14.261	14.294										
33048	257.84	13.877	14.29										
33060	258.87	14.443	14.296										
33072	259.899	15.018	14.299										
33084	260.927	14.442	14.287										
33096	261.956	14.962	14.291										
33108	262.986	14.033	14.293										
33120	264.014	13.591	14.291										
33132	265.043	13.579	14.289										
33144	266.072	14.04	14.294										
33156	267.101	15.845	14.293										
33168	268.13	14.816	14.29										
33180	269.159	14.899	14.291										
33192	270.188	15.064	14.294										
33204	271.217	14.318	14.289										
33216	272.246	14.029	14.288										
33228	273.275	14.063	14.293										
33240	274.304	13.451	14.293										
33252	275.333	14.036	14.292										
33264	276.362	14.329	14.292										
33276	277.391	14.505	14.292										
33288	278.42	15.478	14.285										
33300	279.45	14.002	14.296										
33312	280.479	14.152	14.298										
33324	281.507	14.172	14.287										
33336	282.536	13.965	14.289										
33348	283.565	13.57	14.29										
33360	284.593	14.219	14.292										
33372	285.622	14.455	14.291										
33384	286.651	14.098	14.29										
33396	287.68	14.497	14.29										
33408	288.71	15.072	14.294										
33420	289.739	15.312	14.295										
33432	290.767	13.157	14.292										
33444	291.797	14.032	14.292										
33456	292.825	14.366	14.293										
33468	293.854	14.015	14.289										
33480	294.883	14.236	14.293										
33492	295.912	14.745	14.291										
33504	296.941	14.163	14.286										
33516	297.97	14.328	14.292										
33528	298.999	14.771	14.292										
33540	300.028	14.648	14.29										
33552	301.056	13.766	14.288										
33564	302.085	13.94	14.289										
33576	303.114	14.851	14.29										
33588	304.143	14.575	14.286										
33600	305.172	14.46	14.293										
33612	306.2	13.869	14.286										
33624	307.229	13.945	14.284										
33636	308.258	14.441	14.289										
33648	309.286	14.87	14.291										
33660	310.315	14.484	14.288										
33672	311.344	14.107	14.286										
33684	312.373	14.033	14.287										
33696	313.401	13.706	14.287										
33708	314.43	15.007	14.287										
33720	315.459	14.274	14.289										
33732	316.487	13.781	14.286										
33744	317.516	14.214	14.286										
33756	318.544	15.063	14.287										
33768	319.573	14.167	14.283										
33780	320.601	14.697	14.285										
33792	321.63	14.228	14.284										
33804	322.659	13.85	14.287										
33816	323.687	14.332	14.285										
33828	324.716	14.654	14.289										
33840	325.744	14.682	14.288										
33852	326.773	13.192	14.282										
33864	327.802	14.626	14.287										
33876	328.83	14.851	14.285										
33888	329.859	14.205	14.287										
33900	330.888	13.838	14.284										
33912	331.916	14.375	14.289										
33924	332.945	13.777	14.288										
33936	333.973	13.998	14.283										
33948	335.002	14.324	14.284										
33960	336.03	14.471	14.287										
33972	337.059	13.929	14.284										
33984	338.088	14.273	14.287										
33996	339.116	15.211	14.288										
34008	340.145	14.757	14.291										
34020	341.173	14.268	14.286										
34032	342.202	14.346	14.285										
34044	343.23	14.513	14.288										
34056	344.259	13.848	14.281										
34068	345.288	14.388	14.286										
34080	346.317	14.408	14.286										
34092	347.345	14.327	14.291										
34104	348.374	14.574	14.288										
34116	349.402	14.466	14.288										
34128	350.431	14.537	14.288										
34140	351.46	14.251	14.287										
34152	352.488	13.76	14.28										
34164	353.518	13.804	14.288										
34176	354.546	14.148	14.293										
34188	355.574	14.044	14.282										
34200	356.603	14.578	14.291										
34212	357.632	14.855	14.29										
34224	358.661	14.196	14.287										
34236	359.69	14.445	14.288										
34248	0.618	14.001	14.286										
34260	1.647	14.2	14.287										
34272	2.676	13.807	14.287										
34284	3.705	13.945	14.288										
34296	4.734	14.234	14.292										
34308	5.762	15.04	14.292										
34320	6.791	14.478	14.289										
34332	7.82	14.559	14.289										
34344	8.848	14.317	14.284										
34356	9.877	14	14.287										
34368	10.906	13.942	14.287										
34380	11.935	14.138	14.291										
34392	12.964	14.416	14.289										
34404	13.993	13.99	14.288										
34416	15.021	14.573	14.29										
34428	16.05	15.186	14.291										
34440	17.079	14.694	14.285										
34452	18.108	14.34	14.286										
34464	19.137	13.952	14.289										
34476	20.166	14.046	14.289										
34488	21.194	14.501	14.291										
34500	22.223	14.814	14.292										
34512	23.252	14.088	14.292										
34524	24.281	14.548	14.288										
34536	25.31	14.303	14.289										
34548	26.339	14.648	14.289										
34560	27.367	14.123	14.287										
34572	28.396	14.368	14.29										
34584	29.425	13.868	14.292										
34596	30.454	14.222	14.296										
34608	31.483	14.204	14.289										
34620	32.512	14.514	14.288										
34632	33.541	14.036	14.287										
34644	34.569	14.226	14.288										
34656	35.599	14.193	14.288										
34668	36.627	13.802	14.291										
34680	37.656	14.122	14.292										
34692	38.685	13.884	14.287										
34704	39.714	14.498	14.291										
34716	40.743	14.253	14.292										
34728	41.771	14.607	14.288										
34740	42.801	14.056	14.286										
34752	43.83	14.028	14.29										
34764	44.858	14.154	14.288										
34776	45.887	14.152	14.289										
34788	46.916	14.691	14.293										
34800	47.945	14.443	14.293										
34812	48.974	14.385	14.289										
34824	50.003	14.41	14.289										
34836	51.032	14.508	14.291										
34848	52.06	14.346	14.287										
34860	53.089	14.316	14.289										
34872	54.119	14.557	14.293										
34884	55.147	14.413	14.291										
34896	56.175	14.366	14.288										
34908	57.204	14.152	14.289										
34920	58.233	14.95	14.289										
34932	59.262	14.279	14.285										
34944	60.291	14.713	14.285										
34956	61.32	14.053	14.289										
34968	62.348	13.651	14.287										
34980	63.376	14.3	14.285										
34992	64.405	14.781	14.291										
35004	65.434	14.104	14.285										
35016	66.462	14.364	14.287										
35028	67.491	14.654	14.287										
35040	68.52	14.236	14.287										
35052	69.549	14.013	14.285										
35064	70.577	14.082	14.286										
35076	71.606	14.447	14.291										
35088	72.634	12.946	14.286										
35100	73.663	14.367	14.286										
35112	74.691	14.979	14.286										
35124	75.72	14.038	14.283										
35136	76.748	14.15	14.283										
35148	77.777	14.301	14.284										
35160	78.806	14.115	14.286										
35172	79.834	14.054	14.285										
35184	80.862	14.197	14.284										
35196	81.89	14.296	14.283										
35208	82.919	13.726	14.284										
35220	83.947	14.848	14.282										
35232	84.974	15.441	14.272										
35244	86.005	14.306	14.289										
35256	87.033	14.238	14.283										
35268	88.061	14.567	14.284										
35280	89.09	14.346	14.287										
35292	90.118	14.343	14.282										
35304	91.146	13.903	14.281										
35316	92.176	13.948	14.297										
35328	93.204	14.264	14.289										
35340	94.231	14.437	14.278										
35352	95.26	14.3	14.285										
35364	96.289	15.098	14.292										
35376	97.317	14.271	14.281										
35388	98.345	13.509	14.281										
35400	99.374	13.876	14.283										
35412	100.402	14.064	14.283										
35424	101.43	14.1	14.281										
35436	102.459	13.895	14.284										
35448	103.488	14.787	14.289										
35460	104.516	14.265	14.281										
35472	105.544	14.308	14.282										
35484	106.573	14.82	14.286										
35496	107.601	14.723	14.282										
35508	108.629	13.337	14.278										
35520	109.658	14.359	14.284										
35532	110.687	14.491	14.289										
35544	111.715	14.049	14.283										
35556	112.743	13.954	14.283										
35568	113.772	14.318	14.285										
35580	114.801	14.422	14.283										
35592	115.828	14.548	14.283										
35604	116.857	14.813	14.287										
35616	117.885	14.184	14.284										
35628	118.913	13.783	14.277										
35640	119.942	13.677	14.282										
35652	120.97	14.646	14.286										
35664	121.999	14.744	14.284										
35676	123.027	14.303	14.283										
35688	124.055	14.434	14.282										
35700	125.084	14.325	14.283										
35712	126.112	14.608	14.282										
35724	127.14	13.778	14.28										
35736	128.169	14.305	14.288										
35748	129.197	13.945	14.279										
35760	130.226	14.022	14.281										
35772	131.254	14.473	14.285										
35784	132.283	15.014	14.286										
35796	133.311	14.589	14.281										
35808	134.339	13.453	14.281										
35820	135.369	14.503	14.291										
35832	136.397	14.198	14.289										
35844	137.425	14.161	14.281										
35856	138.454	14.125	14.287										
35868	139.482	14.258	14.283										
35880	140.511	14.201	14.284										
35892	141.539	14.168	14.284										
35904	142.568	14.193	14.289										
35916	143.597	14.06	14.288										
35928	144.626	13.45	14.287										
35940	145.655	13.99	14.291										
35952	146.683	14.671	14.288										
35964	147.712	14.017	14.289										
35976	148.741	14.57	14.288										
35988	149.77	14.01	14.291										
36000	150.798	15.058	14.289										
36012	151.828	14.322	14.291										
36024	152.857	14.289	14.297										
36036	153.886	14.838	14.294										
36048	154.915	14.54	14.293										
36060	155.945	14.263	14.293										
36072	156.974	14.488	14.295										
36084	158.003	14.885	14.296										
36096	159.032	14.28	14.293										
36108	160.062	14.325	14.3										
36120	161.091	14.485	14.298										
36132	162.121	14.673	14.298										
36144	163.15	13.862	14.301										
36156	164.18	14.301	14.302										
36168	165.209	14.131	14.298										
36180	166.239	14.08	14.3										
36192	167.269	13.91	14.299										
36204	168.299	14.458	14.304										
36216	169.329	14.011	14.304										
36228	170.359	13.856	14.308										
36240	171.388	14.607	14.305										
36252	172.418	14.325	14.305										
36264	173.449	14.402	14.309										
36276	174.479	14.552	14.309										
36288	175.509	14.154	14.306										
36300	176.539	13.856	14.305										
36312	177.57	14.126	14.31										
36324	178.6	14.154	14.309										
36336	179.63	14.65	14.312										
36348	180.661	14.309	14.313										
36360	181.691	14.722	14.313										
36372	182.722	14.712	14.321										
36384	183.753	14.779	14.32										
36396	184.782	14.387	14.312										
36408	185.813	13.967	14.309										
36420	186.844	14.317	14.31										
36432	187.875	14.292	14.318										
36444	188.906	14.297	14.316										
36456	189.936	14.115	14.315										
36468	190.967	14.182	14.318										
36480	191.998	13.771	14.317										
36492	193.029	14.44	14.316										
36504	194.06	14.593	14.319										
36516	195.091	14.075	14.318										
36528	196.122	14.038	14.316										
36540	197.153	14.112	14.319										
36552	198.185	14.305	14.323										
36564	199.215	14.35	14.323										
36576	200.247	14.578	14.323										
36588	201.278	14.319	14.329										
36600	202.309	14.612	14.323										
36612	203.341	14.447	14.322										
36624	204.372	14.944	14.327										
36636	205.404	14.331	14.324										
36648	206.435	14.577	14.325										
36660	207.467	14.266	14.324										
36672	208.499	14.42	14.333										
36684	209.53	14.239	14.327										
36696	210.562	14.324	14.328										
36708	211.594	14.684	14.331										
36720	212.626	14.408	14.33										
36732	213.658	14.149	14.333										
36744	214.69	14.431	14.33										
36756	215.722	13.796	14.331										
36768	216.754	14.7	14.333										
36780	217.786	14.238	14.331										
36792	218.819	14.046	14.338										
36804	219.85	14.09	14.334										
36816	220.883	14.494	14.337										
36828	221.915	15.046	14.341										
36840	222.947	14.416	14.339										
36852	223.979	14.541	14.337										
36864	225.012	14.245	14.341										
36876	226.044	14.839	14.338										
36888	227.077	14.578	14.336										
36900	228.11	14.774	14.34										
36912	229.142	14.23	14.341										
36924	230.174	14.489	14.337										
36936	231.207	14.273	14.338										
36948	232.24	14.914	14.346										
36960	233.272	14.32	14.341										
36972	234.304	14.443	14.341										
36984	235.337	14.486	14.343										
36996	236.37	14.416	14.343										
37008	237.402	14.012	14.339										
37020	238.435	14.328	14.341										
37032	239.468	13.927	14.341										
37044	240.5	14.955	14.342										
37056	241.533	13.966	14.341										
37068	242.566	14.164	14.346										
37080	243.598	14.243	14.34										
37092	244.631	14.852	14.344										
37104	245.664	14.76	14.348										
37116	246.696	14.75	14.349										
37128	247.729	14.271	14.342										
37140	248.762	13.878	14.342										
37152	249.795	14.611	14.344										
37164	250.827	14.318	14.342										
37176	251.86	14.455	14.342										
37188	252.893	14.52	14.345										
37200	253.925	14.818	14.342										
37212	254.958	14.604	14.344										
37224	255.991	14.944	14.346										
37236	257.024	14.734	14.347										
37248	258.056	14.682	14.339										
37260	259.089	13.914	14.343										
37272	260.121	14.114	14.346										
37284	261.154	14.409	14.339										
37296	262.187	13.757	14.339										
37308	263.219	14.273	14.342										
37320	264.252	15.271	14.339										
37332	265.284	13.513	14.338										
37344	266.317	14.274	14.343										
37356	267.35	14.529	14.342										
37368	268.382	15.31	14.343										
37380	269.415	14.595	14.345										
37392	270.448	14.894	14.347										
37404	271.48	14.138	14.341										
37416	272.513	14.03	14.34										
37428	273.546	14.19	14.342										
37440	274.578	14.46	14.34										
37452	275.611	14.356	14.34										
37464	276.643	14.563	14.339										
37476	277.676	15.118	14.346										
37488	278.709	14.984	14.347										
37500	279.74	14.857	14.332										
37512	280.774	14.233	14.343										
37524	281.806	14.811	14.338										
37536	282.839	13.609	14.337										
37548	283.871	13.482	14.342										
37560	284.904	14.506	14.34										
37572	285.936	13.364	14.338										
37584	286.969	14.75	14.342										
37596	288.001	15.128	14.344										
37608	289.034	13.608	14.337										
37620	290.067	14.237	14.342										
37632	291.099	14.499	14.341										
37644	292.132	15.176	14.344										
37656	293.164	14.355	14.344										
37668	294.196	14.255	14.346										
37680	295.229	14.218	14.339										
37692	296.261	14.033	14.337										
37704	297.294	14.442	14.339										
37716	298.326	14.399	14.338										
37728	299.358	14.173	14.338										
37740	300.39	14.5	14.335										
37752	301.423	14.72	14.34										
37764	302.455	14.425	14.336										
37776	303.488	14.494	14.341										
37788	304.52	14.556	14.338										
37800	305.552	14.257	14.336										
37812	306.584	14.255	14.336										
37824	307.616	14.173	14.336										
37836	308.648	14.117	14.331										
37848	309.681	13.618	14.333										
37860	310.713	14.256	14.334										
37872	311.745	13.998	14.333										
37884	312.777	13.242	14.331										
37896	313.809	14.35	14.335										
37908	314.841	14.221	14.334										
37920	315.873	14.589	14.334										
37932	316.905	14.604	14.336										
37944	317.937	14.087	14.335										
37956	318.969	14.273	14.331										
37968	320.001	14.361	14.331										
37980	321.033	14.345	14.333										
37992	322.064	14.166	14.332										
38004	323.096	13.766	14.327										
38016	324.129	13.944	14.334										
38028	325.16	14.71	14.331										
38040	326.192	14.017	14.33										
38052	327.224	15.05	14.337										
38064	328.255	14.296	14.329										
38076	329.287	14.392	14.329										
38088	330.319	14.31	14.331										
38100	331.351	14.659	14.327										
38112	332.383	14.323	14.328										
38124	333.414	13.758	14.329										
38136	334.446	13.967	14.33										
38148	335.478	13.749	14.329										
38160	336.51	13.278	14.328										
38172	337.542	14.462	14.333										
38184	338.573	14.583	14.331										
38196	339.605	14.516	14.329										
38208	340.637	14.826	14.333										
38220	341.668	14.26	14.328										
38232	342.7	14.646	14.33										
38244	343.732	14.725	14.328										
38256	344.764	13.963	14.329										
38268	345.795	14.193	14.328										
38280	346.827	13.739	14.329										
38292	347.859	14.336	14.331										
38304	348.89	15.437	14.333										
38316	349.922	14.568	14.33										
38328	350.953	14.98	14.331										
38340	351.985	14.135	14.33										
38352	353.016	14.697	14.324										
38364	354.048	15.001	14.32										
38376	355.081	14.005	14.331										
38388	356.112	14.044	14.329										
38400	357.144	13.888	14.328										
38412	358.175	14.428	14.333										
38424	359.207	14.344	14.329										
38436	0.139	14.132	14.328										
38448	1.17	14.336	14.33										
38460	2.202	15.009	14.33										
38472	3.234	14.345	14.328										
38484	4.265	14.906	14.328										
38496	5.298	14.197	14.329										
38508	6.329	14.109	14.326										
38520	7.361	14.127	14.329										
38532	8.393	14.124	14.333										
38544	9.424	14.677	14.331										
38556	10.456	14.197	14.329										
38568	11.487	14.849	14.328										
38580	12.519	15.665	14.334										
38592	13.551	14.549	14.329										
38604	14.582	14.5	14.327										
38616	15.614	14.236	14.327										
38628	16.646	14.167	14.325										
38640	17.678	14.717	14.33										
38652	18.71	13.97	14.332										
38664	19.741	13.822	14.33										
38676	20.772	14.209	14.327										
38688	21.804	14.606	14.329										
38700	22.836	15.135	14.331										
38712	23.867	14.632	14.328										
38724	24.899	14.204	14.327										
38736	25.931	14.648	14.33										
38748	26.962	13.958	14.325										
38760	27.994	14.593	14.329										
38772	29.026	13.876	14.33										
38784	30.058	13.927	14.333										
38796	31.089	13.93	14.327										
38808	32.12	14.743	14.331										
38820	33.152	14.744	14.329										
38832	34.184	14.402	14.33										
38844	35.215	14.857	14.327										
38856	36.247	15.059	14.328										
38868	37.279	14.081	14.327										
38880	38.311	13.644	14.325										
38892	39.342	14.184	14.33										
38904	40.374	13.92	14.328										
38916	41.405	14.307	14.327										
38928	42.437	14.635	14.331										
38940	43.469	14.402	14.33										
38952	44.5	14.567	14.327										
38964	45.532	14.295	14.327										
38976	46.563	14.738	14.328										
38988	47.595	13.947	14.325										
39000	48.626	13.272	14.321										
39012	49.658	14.005	14.329										
39024	50.689	14.065	14.326										
39036	51.721	14.352	14.328										
39048	52.752	14.606	14.33										
39060	53.784	13.983	14.329										
39072	54.815	14.498	14.325										
39084	55.847	14.538	14.325										
39096	56.878	14.634	14.326										
39108	57.909	14.123	14.323										
39120	58.941	13.907	14.321										
39132	59.972	13.987	14.325										
39144	61.004	14.243	14.325										
39156	62.035	13.913	14.321										
39168	63.066	14.827	14.328										
39180	64.097	13.899	14.323										
39192	65.128	14.485	14.323										
39204	66.16	14.606	14.323										
39216	67.191	14.915	14.323										
39228	68.222	14.071	14.319										
39240	69.253	13.858	14.319										
39252	70.285	14.001	14.321										
39264	71.316	13.828	14.32										
39276	72.347	13.404	14.319										
39288	73.378	14.695	14.324										
39300	74.408	14.538	14.322										
39312	75.44	14.426	14.321										
39324	76.471	14.617	14.321										
39336	77.502	14.186	14.318										
39348	78.532	14.325	14.316										
39360	79.564	14.761	14.316										
39372	80.595	13.852	14.321										
39384	81.625	14.114	14.317										
39396	82.656	13.745	14.317										
39408	83.688	14.025	14.321										
39420	84.718	15.251	14.331										
39432	85.748	14.682	14.315										
39444	86.779	14.793	14.319										
39456	87.81	13.878	14.316										
39468	88.84	14.508	14.314										
39480	89.872	15.256	14.314										
39492	90.903	14.006	14.327										
39504	91.932	13.814	14.306										
39516	92.962	13.582	14.297										
39528	93.995	14.166	14.319										
39540	95.025	14.514	14.315										
39552	96.056	14.672	14.314										
39564	97.086	14.431	14.315										
39576	98.117	14.363	14.315										
39588	99.148	14.272	14.312										
39600	100.179	15.243	14.314										
39612	101.21	14.136	14.319										
39624	102.239	13.981	14.315										
39636	103.27	14.214	14.315										
39648	104.301	13.92	14.317										
39660	105.331	14.499	14.314										
39672	106.362	14.569	14.313										
39684	107.392	14.924	14.316										
39696	108.423	14.446	14.314										
39708	109.453	14.639	14.31										
39720	110.484	14.968	14.313										
39732	111.515	14.382	14.317										
39744	112.545	14.293	14.313										
39756	113.575	14.541	14.313										
39768	114.606	14.14	14.312										
39780	115.636	13.503	14.309										
39792	116.666	14.814	14.308										
39804	117.697	13.86	14.312										
39816	118.728	14.111	14.315										
39828	119.758	14.671	14.311										
39840	120.788	14.269	14.306										
39852	121.819	14.075	14.311										
39864	122.849	14.139	14.309										
39876	123.879	14.384	14.311										
39888	124.91	14.231	14.311										
39900	125.94	13.596	14.311										
39912	126.97	14.673	14.311										
39924	128.001	14.817	14.309										
39936	129.032	14.164	14.314										
39948	130.063	14.684	14.316										
39960	131.092	14.06	14.31										
39972	132.123	14.044	14.311										
39984	133.153	14.835	14.313										
39996	134.184	14.15	14.313										
40008	135.214	14.361	14.313										
40020	136.244	13.64	14.308										
40032	137.275	14.053	14.308										
40044	138.305	13.925	14.308										
40056	139.337	14.401	14.317										
40068	140.367	14.498	14.314										
40080	141.397	14.142	14.312										
40092	142.428	14.401	14.317										
40104	143.459	14.115	14.313										
40116	144.489	14.319	14.315										
40128	145.52	13.947	14.314										
40140	146.551	13.783	14.313										
40152	147.581	13.953	14.315										
40164	148.613	14.029	14.314										
40176	149.644	14.858	14.323										
40188	150.674	14.648	14.317										
40200	151.705	14.728	14.319										
40212	152.736	14.144	14.321										
40224	153.767	15.093	14.318										
40236	154.798	14.212	14.319										
40248	155.829	14.586	14.32										
40260	156.86	14.118	14.321										
40272	157.891	14.308	14.318										
40284	158.923	14.08	14.32										
40296	159.954	14.845	14.326										
40308	160.985	14.407	14.323										
40320	162.016	14.66	14.325										
40332	163.048	14.327	14.325										
40344	164.079	14.185	14.324										
40356	165.111	14.33	14.325										
40368	166.142	14.116	14.325										
40380	167.174	13.889	14.325										
40392	168.206	14.171	14.328										
40404	169.237	13.49	14.325										
40416	170.27	14.32	14.333										
40428	171.301	14.425	14.333										
40440	172.333	14.756	14.332										
40452	173.365	14.618	14.336										
40464	174.396	14.696	14.334										
40476	175.428	14.15	14.33										
40488	176.46	14.119	14.334										
40500	177.492	14.289	14.333										
40512	178.524	14.608	14.333										
40524	179.557	14.417	14.335										
40536	180.59	14.331	14.339										
40548	181.621	14.418	14.335										
40560	182.654	14.666	14.341										
40572	183.687	14.421	14.343										
40584	184.719	14.678	14.347										
40596	185.75	14.357	14.336										
40608	186.783	14.232	14.339										
40620	187.816	13.69	14.338										
40632	188.848	14.84	14.34										
40644	189.881	14.12	14.34										
40656	190.914	14.069	14.342										
40668	191.946	14.412	14.341										
40680	192.979	14.371	14.342										
40692	194.012	14.328	14.345										
40704	195.044	14.274	14.344										
40716	196.077	14.73	14.346										
40728	197.11	14.326	14.348										
40740	198.143	14.22	14.346										
40752	199.176	14.551	14.344										
40764	200.209	14.352	14.346										
40776	201.242	14.512	14.348										
40788	202.275	14.924	14.348										
40800	203.308	14.908	14.349										
40812	204.343	14.021	14.353										
40824	205.375	14.191	14.35										
40836	206.409	15.044	14.353										
40848	207.442	14.437	14.357										
40860	208.475	14.012	14.353										
40872	209.509	14.556	14.354										
40884	210.543	14.565	14.356										
40896	211.576	14.018	14.356										
40908	212.609	15.037	14.352										
40920	213.644	14.28	14.359										
40932	214.678	14.622	14.362										
40944	215.711	14.389	14.356										
40956	216.746	14.179	14.355										
40968	217.78	14.006	14.361										
40980	218.813	13.738	14.358										
40992	219.847	14.832	14.363										
41004	220.882	14.631	14.367										
41016	221.915	14.076	14.364										
41028	222.949	14.394	14.361										
41040	223.984	14.707	14.367										
41052	225.018	15.298	14.364										
41064	226.052	14.355	14.363										
41076	227.087	14.353	14.365										
41088	228.121	14.718	14.365										
41100	229.155	14.209	14.361										
41112	230.19	14.47	14.364										
41124	231.224	14.218	14.37										
41136	232.258	14.649	14.364										
41148	233.293	14.757	14.367										
41160	234.328	14.676	14.37										
41172	235.362	14.284	14.368										
41184	236.396	14.358	14.367										
41196	237.431	14.154	14.37										
41208	238.466	14.621	14.37										
41220	239.5	14.551	14.369										
41232	240.535	14.214	14.368										
41244	241.569	14.346	14.37										
41256	242.604	15.163	14.369										
41268	243.639	14.683	14.37										
41280	244.674	14.298	14.372										
41292	245.708	14.48	14.368										
41304	246.743	13.49	14.367										
41316	247.778	13.914	14.374										
41328	248.812	13.915	14.37										
41340	249.847	14.49	14.369										
41352	250.881	14.862	14.374										
41364	251.916	15.482	14.375										
41376	252.951	14.364	14.369										
41388	253.985	14.542	14.374										
41400	255.02	14.746	14.372										
41412	256.054	14.797	14.369										
41424	257.089	13.823	14.368										
41436	258.124	14.528	14.37										
41448	259.159	14.175	14.368										
41460	260.193	14.525	14.368										
41472	261.228	14.51	14.372										
41484	262.262	14.539	14.366										
41496	263.297	14.881	14.369										
41508	264.332	14.61	14.371										
41520	265.366	13.607	14.369										
41532	266.401	13.81	14.37										
41544	267.435	13.978	14.371										
41556	268.47	14.604	14.371										
41568	269.504	14.452	14.367										
41580	270.539	14.609	14.371										
41592	271.574	14.725	14.373										
41604	272.608	14.384	14.364										
41616	273.643	15.163	14.37										
41628	274.677	14.343	14.368										
41640	275.712	14.448	14.363										
41652	276.746	14.689	14.373										
41664	277.781	14.44	14.373										
41676	278.815	13.647	14.356										
41688	279.85	13.014	14.359										
41700	280.885	14.194	14.375										
41712	281.919	14.995	14.364										
41724	282.953	14.666	14.371										
41736	283.988	15.169	14.371										
41748	285.022	14.321	14.369										
41760	286.057	14.944	14.368										
41772	287.092	14.907	14.369										
41784	288.126	14.095	14.365										
41796	289.16	13.975	14.365										
41808	290.195	13.637	14.367										
41820	291.23	14.172	14.367										
41832	292.264	13.561	14.365										
41844	293.299	13.831	14.367										
41856	294.333	14.536	14.367										
41868	295.367	14.141	14.367										
41880	296.402	14.754	14.371										
41892	297.436	14.652	14.369										
41904	298.47	14.195	14.364										
41916	299.505	14.243	14.366										
41928	300.539	14.453	14.365										
41940	301.574	14.834	14.365										
41952	302.607	13.811	14.364										
41964	303.642	13.819	14.361										
41976	304.677	13.739	14.366										
41988	305.71	14.063	14.361										
42000	306.745	15.304	14.366										
42012	307.779	14.709	14.365										
42024	308.813	14.963	14.366										
42036	309.847	14.432	14.365										
42048	310.881	14.151	14.365										
42060	311.916	13.884	14.361										
42072	312.949	14.194	14.362										
42084	313.984	14.306	14.363										
42096	315.017	13.645	14.361										
42108	316.051	13.902	14.361										
42120	317.086	14.512	14.362										
42132	318.12	13.651	14.359										
42144	319.154	15.063	14.363										
42156	320.187	14.901	14.36										
42168	321.222	14.279	14.363										
42180	322.256	14.682	14.361										
42192	323.29	14.281	14.363										
42204	324.324	14.092	14.362										
42216	325.358	14.828	14.361										
42228	326.391	14.66	14.361										
42240	327.426	14.375	14.366										
42252	328.459	13.742	14.359										
42264	329.493	14.207	14.358										
42276	330.527	14.975	14.361										
42288	331.561	14.273	14.357										
42300	332.595	14.954	14.362										
42312	333.629	14.347	14.36										
42324	334.664	13.998	14.361										
42336	335.698	13.823	14.36										
42348	336.732	13.981	14.359										
42360	337.766	14.291	14.362										
42372	338.799	13.791	14.36										
42384	339.833	14.628	14.362										
42396	340.867	14.609	14.364										
42408	341.901	13.357	14.359										
42420	342.935	14.633	14.359										
42432	343.969	14.706	14.363										
42444	345.003	14.851	14.361										
42456	346.037	14.163	14.36										
42468	347.071	14.187	14.359										
42480	348.105	14.305	14.361										
42492	349.139	14.189	14.361										
42504	350.173	14.159	14.359										
42516	351.207	14.535	14.364										
42528	352.24	13.744	14.354										
42540	353.276	14.566	14.369										
42552	354.309	14.697	14.363										
42564	355.342	14.796	14.356										
42576	356.377	14.415	14.362										
42588	357.411	14.313	14.359										
42600	358.445	14.579	14.362										
42612	359.479	13.952	14.36										
42624	0.413	13.803	14.357										
42636	1.447	13.861	14.36										
42648	2.481	14.758	14.36										
42660	3.515	14.385	14.362										
42672	4.549	14.131	14.364										
42684	5.583	14.192	14.364										
42696	6.617	14.296	14.362										
42708	7.651	14.191	14.362										
42720	8.685	14.416	14.365										
42732	9.719	14.362	14.362										
42744	10.753	14.129	14.361										
42756	11.787	14.665	14.365										
42768	12.821	14.679	14.36										
42780	13.855	14.543	14.359										
42792	14.89	14.593	14.361										
42804	15.923	14.918	14.363										
42816	16.958	14.39	14.363										
42828	17.992	14.036	14.361										
42840	19.026	14.553	14.362										
42852	20.06	14.444	14.362										
42864	21.094	14.704	14.367										
42876	22.128	14.087	14.365										
42888	23.162	14.296	14.361										
42900	24.196	14.444	14.362										
42912	25.23	14.081	14.362										
42924	26.264	14.873	14.362										
42936	27.298	14.375	14.361										
42948	28.332	15.011	14.363										
42960	29.366	14.682	14.361										
42972	30.4	13.977	14.36										
42984	31.435	14.028	14.363										
42996	32.468	13.907	14.359										
43008	33.503	14.387	14.363										
43020	34.537	14.595	14.367										
43032	35.571	14.285	14.363										
43044	36.605	14.243	14.361										
43056	37.639	14.433	14.364										
43068	38.673	15.367	14.365										
43080	39.707	14.574	14.361										
43092	40.741	14.615	14.362										
43104	41.775	15.516	14.364										
43116	42.809	14.208	14.357										
43128	43.843	14.292	14.359										
43140	44.877	14.139	14.362										
43152	45.911	13.827	14.358										
43164	46.945	14.438	14.361										
43176	47.979	14.316	14.366										
43188	49.013	14.069	14.361										
43200	50.047	14.261	14.361										
43212	51.081	14.754	14.362										
43224	52.115	15.289	14.364										
43236	53.149	14.523	14.36										
43248	54.183	14.349	14.36										
43260	55.217	14.29	14.359										
43272	56.25	14.314	14.355										
43284	57.284	14.604	14.358										
43296	58.319	14.133	14.359										
43308	59.352	14.306	14.356										
43320	60.386	14.573	14.359										
43332	61.42	13.93	14.362										
43344	62.454	14.421	14.361										
43356	63.488	14.367	14.359										
43368	64.521	15.154	14.362										
43380	65.555	15.216	14.359										
43392	66.589	14.511	14.359										
43404	67.622	14.777	14.359										
43416	68.656	14.29	14.355										
43428	69.69	14.149	14.354										
43440	70.723	14.529	14.356										
43452	71.757	13.983	14.356										
43464	72.791	13.863	14.354										
43476	73.825	13.74	14.357										
43488	74.859	14.564	14.36										
43500	75.892	14.231	14.357										
43512	76.925	14.599	14.356										
43524	77.959	15.347	14.36										
43536	78.992	13.861	14.354										
43548	80.025	14.536	14.353										
43560	81.059	14.364	14.355										
43572	82.093	14.539	14.353										
43584	83.125	14.335	14.342										
43596	84.16	14.419	14.352										
43608	85.194	14.181	14.359										
43620	86.226	13.983	14.35										
43632	87.26	13.963	14.352										
43644	88.294	14.709	14.359										
43656	89.327	14.371	14.352										
43668	90.361	14.483	14.358										
43680	91.395	15.032	14.371										
43692	92.427	15.246	14.359										
43704	93.46	14.555	14.346										
43716	94.494	14.398	14.354										
43728	95.527	14.347	14.351										
43740	96.56	14.252	14.35										
43752	97.593	13.598	14.349										
43764	98.628	14.068	14.353										
43776	99.66	13.885	14.347										
43788	100.694	14.23	14.351										
43800	101.728	15.127	14.358										
43812	102.761	14.025	14.353										
43824	103.794	14.774	14.353										
43836	104.827	14.146	14.354										
43848	105.861	15.065	14.351										
43860	106.894	14.477	14.349										
43872	107.927	14.597	14.353										
43884	108.96	14.338	14.352										
43896	109.993	14.012	14.348										
43908	111.027	14.877	14.353										
43920	112.061	14.089	14.354										
43932	113.093	13.959	14.348										
43944	114.127	15.27	14.351										
43956	115.16	14.69	14.355										
43968	116.193	14.421	14.349										
43980	117.227	14.354	14.352										
43992	118.26	14.592	14.353										
44004	119.293	14.646	14.349										
44016	120.326	14.44	14.349										
44028	121.359	14.478	14.348										
44040	122.393	14.005	14.348										
44052	123.425	14.108	14.346										
44064	124.459	15.27	14.352										
44076	125.492	14.405	14.353										
44088	126.525	13.471	14.347										
44100	127.558	14.502	14.35										
44112	128.592	14.183	14.356										
44124	129.624	14.875	14.348										
44136	130.658	14.404	14.345										
44148	131.691	14.942	14.353										
44160	132.725	14.445	14.353										
44172	133.758	14.189	14.351										
44184	134.791	15.345	14.35										
44196	135.824	13.995	14.346										
44208	136.858	14.088	14.35										
44220	137.891	15.873	14.355										
44232	138.925	13.91	14.355										
44244	139.958	13.725	14.35										
44256	140.991	14.125	14.351										
44268	142.025	14.132	14.353										
44280	143.058	14.106	14.352										
44292	144.092	14.266	14.352										
44304	145.125	14.537	14.354										
44316	146.159	13.965	14.352										
44328	147.192	14.607	14.355										
44340	148.226	15.363	14.358										
44352	149.26	14.264	14.357										
44364	150.293	14.345	14.356										
44376	151.327	13.8	14.354										
44388	152.361	14.05	14.361										
44400	153.395	14.025	14.358										
44412	154.428	14.151	14.358										
44424	155.463	14.571	14.361										
44436	156.496	14.072	14.36										
44448	157.53	14.358	14.359										
44460	158.564	14.231	14.363										
44472	159.598	14.316	14.359										
44484	160.632	14.732	14.361										
44496	161.666	15.294	14.363										
44508	162.701	14.447	14.363										
44520	163.735	14.938	14.364										
44532	164.769	14.483	14.361										
44544	165.804	14.146	14.367										
44556	166.838	14.156	14.364										
44568	167.872	14.198	14.362										
44580	168.907	14.183	14.371										
44592	169.941	14.12	14.366										
44604	170.975	14.101	14.366										
44616	172.01	14.022	14.37										
44628	173.045	14.457	14.369										
44640	174.079	14.921	14.368										
44652	175.114	14.23	14.37										
44664	176.149	14.352	14.371										
44676	177.184	14.45	14.37										
44688	178.218	14.86	14.37										
44700	179.254	14.17	14.372										
44712	180.288	14.406	14.374										
44724	181.324	14.574	14.375										
44736	182.359	13.963	14.38										
44748	183.394	14.105	14.374										
44760	184.428	13.837	14.372										
44772	185.464	13.986	14.38										
44784	186.499	14.634	14.377										
44796	187.534	14.399	14.377										
44808	188.569	14.828	14.38										
44820	189.604	14.026	14.377										
44832	190.639	14.379	14.375										
44844	191.675	14.669	14.378										
44856	192.71	14.589	14.377										
44868	193.746	14.972	14.379										
44880	194.781	13.812	14.378										
44892	195.817	14.177	14.382										
44904	196.852	13.933	14.379										
44916	197.888	12.484	14.377										
44928	198.924	14.256	14.387										
44940	199.959	13.973	14.382										
44952	200.995	14.431	14.387										
44964	202.031	14.483	14.389										
44976	203.066	14.497	14.385										
44988	204.102	14.511	14.386										
45000	205.138	14.532	14.391										
45012	206.174	14.81	14.388										
45024	207.21	14.694	14.387										
45036	208.246	14.827	14.392										
45048	209.282	14.784	14.389										
45060	210.318	14.068	14.388										
45072	211.354	14.567	14.386										
45084	212.391	14.198	14.395										
45096	213.427	14.535	14.393										
45108	214.462	14.417	14.388										
45120	215.5	13.881	14.395										
45132	216.536	14.025	14.389										
45144	217.572	12.78	14.39										
45156	218.609	14.725	14.399										
45168	219.645	14.199	14.395										
45180	220.681	15.059	14.397										
45192	221.718	15.144	14.402										
45204	222.755	14.444	14.397										
45216	223.791	14.796	14.399										
45228	224.828	13.996	14.4										
45240	225.865	15.039	14.399										
45252	226.901	14.55	14.396										
45264	227.938	14.351	14.401										
45276	228.975	13.98	14.4										
45288	230.011	14.171	14.397										
45300	231.048	14.701	14.399										
45312	232.085	13.897	14.397										
45324	233.121	14.812	14.396										
45336	234.158	15.775	14.401										
45348	235.195	14.541	14.403										
45360	236.231	14.62	14.397										
45372	237.268	14.876	14.399										
45384	238.306	14.436	14.403										
45396	239.342	14.303	14.396										
45408	240.379	14.336	14.395										
45420	241.416	14.479	14.404										
45432	242.453	13.71	14.4										
45444	243.49	13.9	14.399										
45456	244.527	13.725	14.401										
45468	245.563	13.486	14.398										
45480	246.6	14.247	14.399										
45492	247.637	14.008	14.403										
45504	248.674	14.083	14.403										
45516	249.71	14.443	14.397										
45528	250.747	14.78	14.4										
45540	251.784	14.184	14.4										
45552	252.821	14.912	14.398										
45564	253.858	15.123	14.4										
45576	254.895	14.854	14.403										
45588	255.931	14.918	14.401										
45600	256.968	14.319	14.397										
45612	258.005	14.644	14.401										
45624	259.041	14.334	14.398										
45636	260.078	14.144	14.396										
45648	261.115	14.515	14.402										
45660	262.151	13.696	14.396										
45672	263.188	14.081	14.396										
45684	264.225	14.287	14.4										
45696	265.261	13.819	14.396										
45708	266.298	14.299	14.397										
45720	267.335	14.315	14.4										
45732	268.372	14.697	14.401										
45744	269.408	14.195	14.396										
45756	270.444	14.545	14.401										
45768	271.481	14.475	14.399										
45780	272.517	14.627	14.394										
45792	273.554	14.649	14.398										
45804	274.591	14.532	14.397										
45816	275.627	15.044	14.391										
45828	276.664	14.572	14.398										
45840	277.701	14.754	14.402										
45852	278.736	13.861	14.381										
45864	279.773	14.899	14.389										
45876	280.811	14.161	14.4										
45888	281.846	13.677	14.388										
45900	282.883	14.463	14.397										
45912	283.919	14.457	14.398										
45924	284.956	14.114	14.397										
45936	285.992	13.735	14.395										
45948	287.028	14.629	14.396										
45960	288.065	14.361	14.395										
45972	289.101	14.8	14.398										
45984	290.138	15.436	14.398										
45996	291.174	14.356	14.396										
46008	292.211	14.774	14.395										
46020	293.247	14.54	14.395										
46032	294.284	13.53	14.394										
46044	295.32	14.274	14.393										
46056	296.356	14.202	14.392										
46068	297.392	14.363	14.393										
46080	298.429	14.017	14.391										
46092	299.465	13.694	14.393										
46104	300.501	14.271	14.391										
46116	301.537	13.764	14.39										
46128	302.573	14.15	14.39										
46140	303.609	14.467	14.392										
46152	304.645	13.7	14.388										
46164	305.682	14.455	14.393										
46176	306.717	14.691	14.386										
46188	307.754	14.367	14.39										
46200	308.789	14.656	14.386										
46212	309.825	15.186	14.391										
46224	310.861	14.901	14.39										
46236	311.897	14.31	14.385										
46248	312.933	14.436	14.387										
46260	313.969	14.333	14.389										
46272	315.005	14.406	14.385										
46284	316.04	13.933	14.385										
46296	317.076	14.214	14.383										
46308	318.112	14.578	14.382										
46320	319.147	13.969	14.382										
46332	320.184	14.008	14.385										
46344	321.219	13.999	14.382										
46356	322.255	14.717	14.385										
46368	323.29	14.608	14.388										
46380	324.325	14.585	14.385										
46392	325.361	14.717	14.386										
46404	326.397	14.375	14.387										
46416	327.432	14.911	14.382										
46428	328.468	14.599	14.383										
46440	329.504	14.82	14.385										
46452	330.539	15.592	14.383										
46464	331.575	14.237	14.383										
46476	332.61	14.449	14.383										
46488	333.645	14.249	14.379										
46500	334.681	14.232	14.381										
46512	335.716	14.902	14.379										
46524	336.752	14.048	14.382										
46536	337.787	14.288	14.38										
46548	338.823	13.483	14.379										
46560	339.859	14.494	14.385										
46572	340.893	14.422	14.381										
46584	341.929	13.853	14.378										
46596	342.964	14.726	14.387										
46608	343.999	15.366	14.38										
46620	345.035	14.438	14.379										
46632	346.07	14.278	14.382										
46644	347.105	14.525	14.378										
46656	348.141	14.663	14.377										
46668	349.176	14.268	14.38										
46680	350.211	14.452	14.377										
46692	351.247	14.182	14.384										
46704	352.282	14.555	14.379										
46716	353.317	14.281	14.37										
46728	354.353	14.139	14.378										
46740	355.388	13.934	14.379										
46752	356.423	14.301	14.382										
46764	357.459	14.563	14.379										
46776	358.494	14.035	14.379										
46788	359.529	14.145	14.379										
46800	0.464	14.693	14.378										
46812	1.5	14.354	14.379										
46824	2.535	14.913	14.379										
46836	3.57	14.305	14.378										
46848	4.605	14.211	14.38										
46860	5.64	14.009	14.375										
46872	6.676	14.045	14.374										
46884	7.711	14.063	14.374										
46896	8.746	14.074	14.376										
46908	9.782	14.318	14.377										
46920	10.817	14.253	14.377										
46932	11.852	13.394	14.376										
46944	12.887	14.543	14.38										
46956	13.922	14.456	14.379										
46968	14.957	14.639	14.376										
46980	15.992	14.573	14.38										
46992	17.027	14.226	14.378										
47004	18.062	14.407	14.375										
47016	19.098	14.507	14.377										
47028	20.133	14.345	14.379										
47040	21.168	14.512	14.377										
47052	22.203	14.323	14.375										
47064	23.238	14.642	14.376										
47076	24.273	14.454	14.374										
47088	25.308	14.772	14.373										
47100	26.344	14.422	14.376										
47112	27.378	14.286	14.375										
47124	28.413	14.817	14.378										
47136	29.449	14.049	14.377										
47148	30.484	13.735	14.378										
47160	31.519	14.417	14.376										
47172	32.554	14.761	14.38										
47184	33.589	14.219	14.375										
47196	34.624	14.273	14.375										
47208	35.659	14.856	14.376										
47220	36.693	13.899	14.376										
47232	37.728	14.256	14.373										
47244	38.764	14.199	14.375										
47256	39.799	14.866	14.374										
47268	40.834	14.833	14.374										
47280	41.868	15.2	14.376										
47292	42.904	14.394	14.375										
47304	43.939	14.315	14.374										
47316	44.973	14.7	14.375										
47328	46.009	14.524	14.377										
47340	47.043	13.971	14.374										
47352	48.078	14.845	14.371										
47364	49.113	14.372	14.376										
47376	50.148	14.126	14.374										
47388	51.182	14.37	14.371										
47400	52.217	14.371	14.371										
47412	53.252	14.316	14.37										
47424	54.286	14.845	14.37										
47436	55.321	14.655	14.37										
47448	56.356	14.295	14.37										
47460	57.39	14.315	14.368										
47472	58.425	14.81	14.367										
47484	59.46	14.285	14.37										
47496	60.494	13.972	14.369										
47508	61.529	14.666	14.371										
47520	62.563	14.039	14.371										
47532	63.598	14.653	14.37										
47544	64.632	14.338	14.367										
47556	65.667	14.779	14.368										
47568	66.701	14.96	14.372										
47580	67.735	14.715	14.367										
47592	68.77	14.567	14.367										
47604	69.804	14.142	14.364										
47616	70.838	14.259	14.362										
47628	71.873	15.511	14.364										
47640	72.907	14.287	14.365										
47652	73.941	14.16	14.362										
47664	74.975	13.636	14.361										
47676	76.01	14.256	14.367										
47688	77.043	13.855	14.362										
47700	78.077	13.91	14.357										
47712	79.112	14.673	14.365										
47724	80.145	14.699	14.361										
47736	81.179	14.366	14.361										
47748	82.213	14.845	14.359										
47760	83.247	14.068	14.354										
47772	84.282	14.083	14.361										
47784	85.314	14.582	14.357										
47796	86.349	14.071	14.359										
47808	87.382	14.269	14.356										
47820	88.416	14.123	14.355										
47832	89.451	14.312	14.362										
47844	90.484	14.553	14.36										
47856	91.517	15.018	14.363										
47868	92.551	13.998	14.355										
47880	93.585	14.307	14.353										
47892	94.618	14.709	14.355										
47904	95.652	14.421	14.357										
47916	96.685	15.325	14.355										
47928	97.719	14.699	14.352										
47940	98.753	14.646	14.355										
47952	99.787	13.909	14.354										
47964	100.82	13.771	14.351										
47976	101.854	13.621	14.346										
47988	102.887	14.2	14.359										
48000	103.92	14.159	14.35										
48012	104.954	13.899	14.354										
48024	105.987	14.165	14.356										
48036	107.02	14.538	14.351										
48048	108.054	14.434	14.351										
48060	109.087	14.893	14.357										
48072	110.12	14.654	14.352										
48084	111.153	14.396	14.349										
48096	112.187	14.773	14.351										
48108	113.22	14.274	14.351										
48120	114.253	14.016	14.345										
48132	115.287	14.338	14.35										
48144	116.32	14.327	14.352										
48156	117.353	13.839	14.349										
48168	118.386	13.928	14.347										
48180	119.419	13.994	14.35										
48192	120.452	14.833	14.351										
48204	121.485	14.613	14.347										
48216	122.518	15.005	14.35										
48228	123.551	14.204	14.348										
48240	124.584	14.553	14.346										
48252	125.618	14.21	14.347										
48264	126.651	14.023	14.348										
48276	127.684	14.099	14.346										
48288	128.716	14.291	14.348										
48300	129.749	13.905	14.343										
48312	130.783	14.145	14.347										
48324	131.816	13.434	14.346										
48336	132.849	14.535	14.352										
48348	133.882	14.656	14.348										
48360	134.914	14.001	14.342										
48372	135.948	14.592	14.346										
48384	136.981	14.443	14.348										
48396	138.014	14.404	14.344										
48408	139.047	14.764	14.351										
48420	140.08	14.394	14.351										
48432	141.113	14.555	14.348										
48444	142.146	13.648	14.346										
48456	143.18	14.071	14.35										
48468	144.213	15.216	14.349										
48480	145.246	14.53	14.349										
48492	146.279	14.32	14.352										
48504	147.312	14.283	14.348										
48516	148.346	14.389	14.352										
48528	149.379	14.152	14.347										
48540	150.412	13.897	14.349										
48552	151.446	14.491	14.35										
48564	152.479	14.087	14.351										
48576	153.513	14.247	14.356										
48588	154.546	14.695	14.353										
48600	155.579	13.79	14.353										
48612	156.613	14.784	14.358										
48624	157.646	15.037	14.356										
48636	158.68	14.34	14.355										
48648	159.714	14.382	14.357										
48660	160.747	14.133	14.353										
48672	161.781	14.181	14.353										
48684	162.815	14.642	14.358										
48696	163.849	13.963	14.356										
48708	164.882	14.366	14.357										
48720	165.916	13.65	14.355										
48732	166.951	14.346	14.362										
48744	167.985	15	14.363										
48756	169.018	15.081	14.362										
48768	170.053	14.747	14.367										
48780	171.086	14.51	14.362										
48792	172.121	14.522	14.363										
48804	173.155	14.12	14.367										
48816	174.189	13.865	14.36										
48828	175.223	14.209	14.361										
48840	176.257	14.266	14.364										
48852	177.292	14.088	14.363										
48864	178.326	13.929	14.363										
48876	179.361	14.043	14.365										
48888	180.396	14.143	14.369										
48900	181.43	14.272	14.366										
48912	182.465	14.12	14.37										
48924	183.5	13.982	14.373										
48936	184.534	14.754	14.381										
48948	185.568	14.604	14.371										
48960	186.603	14.671	14.372										
48972	187.638	14.855	14.37										
48984	188.672	14.525	14.371										
48996	189.707	14.454	14.374										
49008	190.742	13.813	14.37										
49020	191.776	13.278	14.369										
49032	192.812	14.78	14.373										
49044	193.847	13.991	14.372										
49056	194.881	14.839	14.374										
49068	195.916	13.708	14.374										
49080	196.952	14.18	14.377										
49092	197.987	14.05	14.374										
49104	199.022	14.313	14.375										
49116	200.057	14.609	14.38										
49128	201.092	14.484	14.377										
49140	202.127	14.721	14.379										
49152	203.163	14.484	14.382										
49164	204.198	13.207	14.377										
49176	205.233	14.528	14.378										
49188	206.269	14.173	14.382										
49200	207.305	14.271	14.379										
49212	208.34	14.088	14.382										
49224	209.376	14.488	14.384										
49236	210.412	14.3	14.383										
49248	211.447	14.508	14.387										
49260	212.484	15.024	14.386										
49272	213.519	14.298	14.384										
49284	214.555	14.455	14.385										
49296	215.591	15.188	14.389										
49308	216.627	14.258	14.392										
49320	217.663	14.283	14.39										
49332	218.699	14.458	14.388										
49344	219.735	14.448	14.393										
49356	220.771	14.456	14.39										
49368	221.807	14.227	14.388										
49380	222.844	14.131	14.395										
49392	223.879	14.315	14.39										
49404	224.916	14.29	14.388										
49416	225.952	14.371	14.394										
49428	226.988	14.458	14.392										
49440	228.025	15.75	14.394										
49452	229.061	13.836	14.392										
49464	230.098	14.298	14.395										
49476	231.134	14.051	14.389										
49488	232.171	15.238	14.395										
49500	233.207	14.355	14.397										
49512	234.243	14.55	14.395										
49524	235.28	14.534	14.394										
49536	236.317	14.238	14.4										
49548	237.353	13.935	14.395										
49560	238.389	13.635	14.393										
49572	239.426	13.838	14.398										
49584	240.462	15.313	14.398										
49596	241.499	14.518	14.395										
49608	242.536	14.999	14.401										
49620	243.572	14.383	14.397										
49632	244.609	14.616	14.395										
49644	245.645	14.634	14.397										
49656	246.682	14.539	14.394										
49668	247.718	14.702	14.39										
49680	248.755	14.737	14.398										
49692	249.792	14.442	14.397										
49704	250.828	13.871	14.392										
49716	251.865	12.325	14.392										
49728	252.902	13.947	14.399										
49740	253.938	13.846	14.395										
49752	254.974	14.017	14.395										
49764	256.011	14.206	14.398										
49776	257.048	13.996	14.395										
49788	258.084	14.661	14.402										
49800	259.121	14.724	14.397										
49812	260.157	14.42	14.395										
49824	261.194	14.978	14.397										
49836	262.23	15.389	14.4										
49848	263.267	15.002	14.398										
49860	264.303	14.492	14.396										
49872	265.339	14.392	14.396										
49884	266.376	14.348	14.394										
49896	267.412	14.217	14.393										
49908	268.449	13.862	14.394										
49920	269.486	14.063	14.395										
49932	270.521	14.006	14.39										
49944	271.558	13.406	14.391										
49956	272.595	14.176	14.397										
49968	273.631	14.368	14.393										
49980	274.668	15.242	14.396										
49992	275.704	14.768	14.397										
50004	276.74	14.463	14.397										
50016	277.777	14.774	14.394										
50028	278.814	13.615	14.395										
50040	279.851	14.699	14.414										
50052	280.885	14.768	14.392										
50064	281.922	14.445	14.393										
50076	282.958	14.253	14.397										
50088	283.994	14.042	14.394										
50100	285.03	13.93	14.392										
50112	286.067	13.789	14.392										
50124	287.103	14.687	14.394										
50136	288.139	14.77	14.391										
50148	289.176	14.425	14.393										
50160	290.212	15.281	14.394										
50172	291.248	14.475	14.389										
50184	292.284	14.496	14.393										
50196	293.32	14.545	14.391										
50208	294.357	14.393	14.388										
50220	295.393	14.26	14.391										
50232	296.429	14.852	14.391										
50244	297.465	14.4	14.388										
50256	298.502	14.055	14.393										
50268	299.537	14.447	14.392										
50280	300.573	13.559	14.382										
50292	301.609	13.795	14.389										
50304	302.645	14.388	14.389										
50316	303.681	14.289	14.391										
50328	304.717	14.112	14.388										
50340	305.753	13.976	14.386										
50352	306.789	14.417	14.387										
50364	307.825	14.185	14.386										
50376	308.861	14.4	14.385										
50388	309.897	14.437	14.386										
50400	310.932	14.315	14.384										
50412	311.969	14.379	14.386										
50424	313.004	14.606	14.384										
50436	314.04	13.412	14.38										
50448	315.076	14.661	14.388										
50460	316.111	14.493	14.384										
50472	317.147	14.064	14.384										
50484	318.183	14.275	14.388										
50496	319.219	14.775	14.384										
50508	320.254	14.443	14.385										
50520	321.29	14.239	14.385										
50532	322.326	14.906	14.386										
50544	323.361	14.062	14.383										
50556	324.397	13.857	14.385										
50568	325.432	14.339	14.38										
50580	326.468	14.06	14.382										
50592	327.504	13.734	14.382										
50604	328.54	14.118	14.381										
50616	329.575	14.98	14.385										
50628	330.61	14.41	14.384										
50640	331.647	14.134	14.385										
50652	332.682	14.41	14.382										
50664	333.718	14.94	14.386										
50676	334.754	14.781	14.389										
50688	335.789	15.035	14.384										
50700	336.824	14.767	14.385										
50712	337.86	15.17	14.387										
50724	338.895	14.68	14.383										
50736	339.931	14.391	14.382										
50748	340.967	14.5	14.385										
50760	342.002	14.48	14.38										
50772	343.038	13.972	14.381										
50784	344.073	14.233	14.384										
50796	345.109	14.16	14.38										
50808	346.144	14.321	14.381										
50820	347.18	14.053	14.382										
50832	348.216	14.027	14.381										
50844	349.251	14.346	14.382										
50856	350.287	14.61	14.383										
50868	351.322	14.415	14.387										
50880	352.357	14.369	14.374										
50892	353.393	14.282	14.383										
50904	354.429	14.741	14.39										
50916	355.464	14.694	14.38										
50928	356.5	14.365	14.382										
50940	357.536	14.311	14.383										
50952	358.571	14.332	14.382										
50964	359.607	14.349	14.384										
50976	0.542	14.725	14.383										
50988	1.578	14.023	14.381										
51000	2.613	14.498	14.382										
51012	3.649	14.524	14.382										
51024	4.685	14.163	14.382										
51036	5.72	13.947	14.382										
51048	6.756	14.637	14.382										
51060	7.792	14.156	14.383										
51072	8.827	14.36	14.384										
51084	9.863	14.032	14.383										
51096	10.898	14.439	14.386										
51108	11.934	13.894	14.386										
51120	12.969	14.367	14.383										
51132	14.005	14.131	14.383										
51144	15.04	14.549	14.386										
51156	16.076	14.216	14.384										
51168	17.112	14.048	14.386										
51180	18.147	14.667	14.389										
51192	19.182	14.546	14.382										
51204	20.218	14.263	14.38										
51216	21.254	14.344	14.383										
51228	22.289	14.554	14.381										
51240	23.325	14.567	14.381										
51252	24.361	14.221	14.383										
51264	25.396	14.426	14.382										
51276	26.432	14.262	14.382										
51288	27.468	14.279	14.386										
51300	28.503	14.198	14.386										
51312	29.538	14.728	14.38										
51324	30.574	14.24	14.386										
51336	31.609	14.108	14.386										
51348	32.645	14.357	14.382										
51360	33.68	14.258	14.379										
51372	34.716	14.536	14.383										
51384	35.751	14.715	14.383										
51396	36.787	14.268	14.38										
51408	37.822	14.88	14.381										
51420	38.858	14.217	14.378										
51432	39.894	14.75	14.381										
51444	40.929	14.271	14.382										
51456	41.965	14.473	14.38										
51468	43	13.83	14.38										
51480	44.036	14.218	14.386										
51492	45.071	14.002	14.381										
51504	46.106	14.567	14.381										
51516	47.142	14.703	14.385										
51528	48.178	15.273	14.385										
51540	49.213	14.446	14.38										
51552	50.248	14.862	14.383										
51564	51.284	14.745	14.383										
51576	52.319	14.734	14.38										
51588	53.354	14.526	14.379										
51600	54.39	14.481	14.377										
51612	55.425	14.496	14.377										
51624	56.46	14.766	14.378										
51636	57.496	14.106	14.378										
51648	58.531	14.04	14.376										
51660	59.567	13.464	14.376										
51672	60.602	14.17	14.382										
51684	61.637	14.038	14.378										
51696	62.672	14.577	14.378										
51708	63.707	14.527	14.382										
51720	64.742	14.522	14.378										
51732	65.777	14.221	14.376										
51744	66.813	15.024	14.379										
51756	67.848	14.518	14.376										
51768	68.883	14.26	14.376										
51780	69.918	14.653	14.378										
51792	70.953	14.395	14.376										
51804	71.988	13.669	14.372										
51816	73.023	14.257	14.375										
51828	74.059	14.035	14.375										
51840	75.094	14.523	14.374										
51852	76.129	13.435	14.372										
51864	77.164	14.298	14.377										
51876	78.199	14.285	14.374										
51888	79.233	14.698	14.376										
51900	80.269	14.385	14.379										
51912	81.303	14.651	14.374										
51924	82.339	14.305	14.376										
51936	83.374	13.589	14.383										
51948	84.408	14.198	14.381										
51960	85.443	14.244	14.371										
51972	86.478	14.498	14.374										
51984	87.513	13.853	14.373										
51996	88.547	14.254	14.371										
52008	89.582	14.293	14.373										
52020	90.618	14.41	14.384										
52032	91.651	15.011	14.369										
52044	92.686	14.758	14.356										
52056	93.722	14.068	14.378										
52068	94.757	14.217	14.372										
52080	95.792	14.792	14.376										
52092	96.827	14.491	14.376										
52104	97.861	13.327	14.369										
52116	98.896	14.508	14.371										
52128	99.931	14.659	14.377										
52140	100.965	14.231	14.37										
52152	102	14.198	14.372										
52164	103.035	14.943	14.372										
52176	104.07	14.425	14.372										
52188	105.104	14.799	14.37										
52200	106.139	14.143	14.369										
52212	107.174	13.961	14.371										
52224	108.209	14.134	14.37										
52236	109.244	14.447	14.371										
52248	110.279	13.856	14.374										
52260	111.313	13.695	14.369										
52272	112.348	14.33	14.371										
52284	113.383	14.613	14.375										
52296	114.417	14.147	14.374										
52308	115.452	14.301	14.373										
52320	116.487	14.723	14.374										
52332	117.521	14.822	14.372										
52344	118.556	14.661	14.371										
52356	119.59	14.929	14.371										
52368	120.626	14.718	14.371										
52380	121.66	14.432	14.368										
52392	122.695	13.791	14.366										
52404	123.73	14.129	14.373										
52416	124.764	13.989	14.368										
52428	125.799	15.171	14.369										
52440	126.834	13.888	14.372										
52452	127.868	14.539	14.373										
52464	128.903	14.715	14.371										
52476	129.938	14.931	14.374										
52488	130.972	14.437	14.37										
52500	132.007	14.618	14.372										
52512	133.042	14.323	14.373										
52524	134.077	15.079	14.374										
52536	135.111	14.156	14.365										
52548	136.146	14.179	14.372										
52560	137.181	14.267	14.374										
52572	138.216	14.749	14.37										
52584	139.251	14.239	14.372										
52596	140.286	14.388	14.379										
52608	141.321	14.397	14.372										
52620	142.356	14.703	14.374										
52632	143.391	14.827	14.377										
52644	144.426	15.49	14.378										
52656	145.46	14.575	14.375										
52668	146.496	14.285	14.379										
52680	147.531	14.569	14.376										
52692	148.566	14.33	14.377										
52704	149.601	14.302	14.376										
52716	150.636	14.568	14.376										
52728	151.672	14.941	14.378										
52740	152.707	14.801	14.38										
52752	153.743	14.143	14.38										
52764	154.777	14.708	14.378										
52776	155.813	14.311	14.375										
52788	156.849	14.217	14.385										
52800	157.884	14.417	14.381										
52812	158.92	14.646	14.384										
52824	159.955	14.256	14.386										
52836	160.991	14.501	14.385										
52848	162.026	13.878	14.383										
52860	163.062	14.696	14.39										
52872	164.098	14.396	14.385										
52884	165.134	14.616	14.385										
52896	166.17	14.8	14.388										
52908	167.205	14.838	14.385										
52920	168.242	13.802	14.384										
52932	169.278	14.202	14.388										
52944	170.314	14.132	14.388										
52956	171.35	14.324	14.389										
52968	172.386	13.899	14.387										
52980	173.423	14.082	14.391										
52992	174.459	13.947	14.39										
53004	175.495	13.303	14.391										
53016	176.532	14.769	14.397										
53028	177.568	14.2	14.394										
53040	178.604	14.5	14.395										
53052	179.641	14.547	14.399										
53064	180.677	14.421	14.395										
53076	181.714	14.474	14.399										
53088	182.751	14.557	14.397										
53100	183.786	14.535	14.393										
53112	184.823	14.17	14.387										
53124	185.86	14.647	14.403										
53136	186.897	13.525	14.399										
53148	187.934	13.97	14.398										
53160	188.971	14.316	14.398										
53172	190.008	14.581	14.399										
53184	191.045	14.591	14.4										
53196	192.081	15.016	14.403										
53208	193.119	14.209	14.402										
53220	194.156	14.945	14.403										
53232	195.193	14.546	14.401										
53244	196.23	14.174	14.406										
53256	197.267	14.217	14.403										
53268	198.304	15.174	14.405										
53280	199.342	14.139	14.409										
53292	200.379	13.884	14.406										
53304	201.416	14.429	14.408										
53316	202.454	14.71	14.412										
53328	203.491	14.051	14.407										
53340	204.528	14.34	14.408										
53352	205.566	14.028	14.412										
53364	206.603	15.069	14.413										
53376	207.641	14.623	14.411										
53388	208.679	14.629	14.414										
53400	209.716	14.12	14.411										
53412	210.754	14.532	14.412										
53424	211.792	15.155	14.412										
53436	212.829	14.532	14.406										
53448	213.868	13.762	14.411										
53460	214.906	14.439	14.414										
53472	215.944	14.133	14.415										
53484	216.982	14.399	14.414										
53496	218.019	13.675	14.413										
53508	219.058	14.145	14.417										
53520	220.096	14.4	14.414										
53532	221.134	14.299	14.415										
53544	222.172	14.105	14.42										
53556	223.21	14.504	14.416										
53568	224.248	13.945	14.418										
53580	225.287	14.451	14.423										
53592	226.325	14.376	14.418										
53604	227.363	14.489	14.422										
53616	228.401	14.635	14.424										
53628	229.44	14.209	14.42										
53640	230.478	14.641	14.421										
53652	231.516	14.317	14.424										
53664	232.555	14.176	14.42										
53676	233.593	14.177	14.42										
53688	234.631	14.927	14.426										
53700	235.67	15.152	14.42										
53712	236.707	14.184	14.419										
53724	237.746	14.781	14.424										
53736	238.784	14.81	14.42										
53748	239.823	14.916	14.421										
53760	240.861	15.171	14.424										
53772	241.9	14.019	14.421										
53784	242.938	14.68	14.42										
53796	243.976	14.64	14.422										
53808	245.015	14.282	14.424										
53820	246.053	13.232	14.416										
53832	247.092	14.375	14.42										
53844	248.13	13.625	14.418										
53856	249.168	14.141	14.416										
53868	250.206	13.718	14.418										
53880	251.245	14.318	14.423										
53892	252.283	14.563	14.421										
53904	253.321	15.102	14.422										
53916	254.36	14.384	14.425										
53928	255.398	14.783	14.419										
53940	256.437	14.897	14.422										
53952	257.475	14.314	14.424										
53964	258.513	14.207	14.421										
53976	259.551	14.916	14.418										
53988	260.59	14.091	14.423										
54000	261.628	13.432	14.419										
54012	262.666	14.426	14.42										
54024	263.705	14.408	14.421										
54036	264.743	14.544	14.421										
54048	265.781	14.347	14.417										
54060	266.819	14.872	14.422										
54072	267.857	14.999	14.422										
54084	268.895	14.534	14.418										
54096	269.933	14.608	14.418										
54108	270.972	15.139	14.422										
54120	272.01	15.298	14.418										
54132	273.048	14.663	14.42										
54144	274.087	14.461	14.42										
54156	275.125	14.327	14.418										
54168	276.163	13.933	14.418										
54180	277.201	14.625	14.419										
54192	278.238	13.731	14.4										
54204	279.278	13.869	14.419										
54216	280.315	14.197	14.417										
54228	281.353	14.383	14.413										
54240	282.391	12.969	14.416										
54252	283.429	14.48	14.419										
54264	284.467	14.81	14.419										
54276	285.506	13.765	14.417										
54288	286.544	14.435	14.419										
54300	287.582	14.892	14.419										
54312	288.619	14.988	14.419										
54324	289.658	14.591	14.42										
54336	290.696	13.846	14.416										
54348	291.734	14.764	14.417										
54360	292.772	14.253	14.42										
54372	293.811	13.862	14.417										
54384	294.848	14.459	14.416										
54396	295.886	15.116	14.417										
54408	296.924	14.165	14.418										
54420	297.962	14.508	14.416										
54432	299	15.392	14.419										
54444	300.037	14.986	14.415										
54456	301.075	14.376	14.413										
54468	302.113	14.672	14.415										
54480	303.151	14.899	14.413										
54492	304.188	14.807	14.414										
54504	305.226	14.606	14.412										
54516	306.263	13.583	14.407										
54528	307.302	14.234	14.413										
54540	308.339	15.092	14.412										
54552	309.377	13.962	14.409										
54564	310.414	13.881	14.408										
54576	311.451	14.632	14.411										
54588	312.49	14.255	14.412										
54600	313.526	14.528	14.409										
54612	314.564	14.084	14.406										
54624	315.602	14.424	14.411										
54636	316.639	14.488	14.407										
54648	317.676	14.509	14.407										
54660	318.714	14.503	14.411										
54672	319.75	14.116	14.408										
54684	320.788	14.428	14.408										
54696	321.825	13.996	14.408										
54708	322.862	14.68	14.406										
54720	323.9	14.478	14.407										
54732	324.937	13.784	14.409										
54744	325.974	14.465	14.409										
54756	327.011	14.378	14.405										
54768	328.048	14.252	14.407										
54780	329.085	14.174	14.405										
54792	330.123	14.792	14.405										
54804	331.16	14.848	14.405										
54816	332.197	15.381	14.406										
54828	333.234	14.677	14.404										
54840	334.271	14.806	14.404										
54852	335.308	14.392	14.403										
54864	336.345	14.477	14.399										
54876	337.382	13.997	14.401										
54888	338.42	14.264	14.406										
54900	339.456	13.781	14.401										
54912	340.493	14.466	14.405										
54924	341.531	14.401	14.407										
54936	342.567	14.074	14.401										
54948	343.604	14.032	14.403										
54960	344.641	14.946	14.406										
54972	345.678	15.299	14.403										
54984	346.715	14.556	14.403										
54996	347.752	14.471	14.404										
55008	348.789	14.366	14.401										
55020	349.826	14.429	14.401										
55032	350.862	14.678	14.399										
55044	351.9	13.915	14.4										
55056	352.937	14.477	14.406										
55068	353.972	14.665	14.397										
55080	355.01	14.442	14.399										
55092	356.047	13.459	14.398										
55104	357.084	14.225	14.397										
55116	358.121	14.087	14.401										
55128	359.158	14.032	14.399										
55140	0.094	14.084	14.399										
55152	1.132	14.32	14.402										
55164	2.168	14.924	14.401										
55176	3.205	14.41	14.402										
55188	4.242	14.135	14.403										
55200	5.279	14.292	14.401										
55212	6.316	14.681	14.401										
55224	7.352	14.796	14.403										
55236	8.389	13.209	14.4										
55248	9.426	14.457	14.4										
55260	10.463	14.707	14.401										
55272	11.499	13.693	14.398										
55284	12.536	14.53	14.397										
55296	13.573	14.546	14.398										
55308	14.609	14.899	14.4										
55320	15.646	14.65	14.402										
55332	16.683	14.505	14.399										
55344	17.719	14.599	14.396										
55356	18.756	14.296	14.395										
55368	19.793	14.84	14.397										
55380	20.83	14.233	14.399										
55392	21.866	14.428	14.397										
55404	22.903	14.605	14.398										
55416	23.94	14.323	14.399										
55428	24.976	14.637	14.399										
55440	26.013	14.321	14.395										
55452	27.049	14.506	14.401										
55464	28.086	14.664	14.401										
55476	29.122	14.613	14.396										
55488	30.159	14.189	14.399										
55500	31.195	13.755	14.399										
55512	32.232	14.346	14.395										
55524	33.268	14.321	14.395										
55536	34.305	14.622	14.396										
55548	35.341	14.98	14.396										
55560	36.378	14.382	14.395										
55572	37.414	14.726	14.396										
55584	38.451	14.254	14.39										
55596	39.487	14.719	14.393										
55608	40.524	14.312	14.394										
55620	41.56	13.96	14.391										
55632	42.597	13.962	14.394										
55644	43.633	14.033	14.396										
55656	44.67	14.197	14.392										
55668	45.706	13.596	14.393										
55680	46.742	14.241	14.397										
55692	47.778	14.744	14.396										
55704	48.814	14.467	14.391										
55716	49.851	14.865	14.397										
55728	50.887	14.356	14.394										
55740	51.923	14.517	14.393										
55752	52.959	14.239	14.392										
55764	53.996	14.511	14.393										
55776	55.032	14.487	14.391										
55788	56.067	14.155	14.388										
55800	57.104	14.281	14.388										
55812	58.14	14.244	14.388										
55824	59.175	14.043	14.387										
55836	60.212	14.389	14.388										
55848	61.247	14.194	14.386										
55860	62.283	14.258	14.387										
55872	63.32	14.169	14.39										
55884	64.355	14.118	14.385										
55896	65.391	14.104	14.388										
55908	66.427	14.663	14.389										
55920	67.462	14.644	14.386										
55932	68.498	14.975	14.387										
55944	69.534	14.915	14.388										
55956	70.569	14.382	14.386										
55968	71.605	14.415	14.384										
55980	72.64	15.054	14.387										
55992	73.676	14.655	14.383										
56004	74.711	14.711	14.381										
56016	75.747	14.255	14.382										
56028	76.782	14.325	14.379										
56040	77.818	14.224	14.377										
56052	78.853	13.932	14.376										
56064	79.889	14.089	14.382										
56076	80.923	14.259	14.377										
56088	81.959	14.42	14.376										
56100	82.995	14.492	14.387										
56112	84.03	14.063	14.385										
56124	85.064	14.76	14.375										
56136	86.1	14.149	14.38										
56148	87.135	14.504	14.377										
56160	88.17	14.39	14.376										
56172	89.205	14.351	14.378										
56184	90.24	13.785	14.377										
56196	91.274	14.025	14.368										
56208	92.309	15.207	14.368										
56220	93.345	14.058	14.374										
56232	94.38	14.888	14.373										
56244	95.414	15.64	14.374										
56256	96.45	14.286	14.376										
56268	97.485	14.29	14.372										
56280	98.52	13.569	14.369										
56292	99.555	14.044	14.376										
56304	100.589	14.057	14.372										
56316	101.624	14.643	14.371										
56328	102.659	14.208	14.374										
56340	103.693	13.929	14.368										
56352	104.728	14.492	14.37										
56364	105.763	14.825	14.372										
56376	106.797	14.414	14.369										
56388	107.832	14.591	14.369										
56400	108.866	14.149	14.369										
56412	109.901	14.068	14.37										
56424	110.935	14.222	14.365										
56436	111.97	13.788	14.365										
56448	113.005	14.294	14.371										
56460	114.039	14.145	14.366										
56472	115.073	15.068	14.368										
56484	116.108	14.109	14.368										
56496	117.142	15.072	14.369										
56508	118.176	14.378	14.364										
56520	119.211	14.242	14.367										
56532	120.245	14.646	14.369										
56544	121.279	14.421	14.365										
56556	122.313	14.442	14.364										
56568	123.348	13.885	14.363										
56580	124.381	14.028	14.361										
56592	125.416	14.255	14.361										
56604	126.45	14.142	14.365										
56616	127.484	14.949	14.365										
56628	128.518	13.826	14.362										
56640	129.552	14.399	14.359										
56652	130.587	14.715	14.365										
56664	131.621	14.296	14.363										
56676	132.655	14.199	14.367										
56688	133.689	14.144	14.364										
56700	134.723	14.215	14.356										
56712	135.758	14.098	14.36										
56724	136.792	14.203	14.363										
56736	137.826	14.116	14.361										
56748	138.86	14.543	14.364										
56760	139.894	14.175	14.363										
56772	140.928	14.647	14.361										
56784	141.962	13.669	14.363										
56796	142.997	14.413	14.366										
56808	144.031	14.769	14.364										
56820	145.065	14.462	14.365										
56832	146.099	14.455	14.367										
56844	147.134	14.313	14.363										
56856	148.168	14.512	14.366										
56868	149.202	14.275	14.366										
56880	150.236	14.5	14.364										
56892	151.271	14.957	14.366										
56904	152.305	14.125	14.366										
56916	153.34	14.179	14.365										
56928	154.374	14.383	14.365										
56940	155.409	13.77	14.364										
56952	156.444	14.034	14.371										
56964	157.478	14.324	14.367										
56976	158.512	14.599	14.372										
56988	159.547	14.195	14.373										
57000	160.581	14.429	14.37										
57012	161.616	14.343	14.37										
57024	162.651	14.183	14.374										
57036	163.685	14.823	14.372										
57048	164.72	14.274	14.369										
57060	165.755	14.462	14.373										
57072	166.79	14.495	14.369										
57084	167.825	14.297	14.371										
57096	168.859	15.028	14.374										
57108	169.895	14.496	14.374										
57120	170.93	14.193	14.373										
57132	171.965	14.341	14.374										
57144	173	13.942	14.378										
57156	174.035	14.026	14.375										
57168	175.07	14.029	14.376										
57180	176.106	14.987	14.382										
57192	177.14	13.995	14.377										
57204	178.176	14.557	14.378										
57216	179.211	14.723	14.382										
57228	180.247	14.568	14.378										
57240	181.282	14.516	14.377										
57252	182.316	14.555	14.374										
57264	183.352	14.93	14.374										
57276	184.388	13.815	14.375										
57288	185.423	14.251	14.383										
57300	186.459	13.952	14.382										
57312	187.494	13.979	14.379										
57324	188.53	14.749	14.382										
57336	189.566	14.154	14.385										
57348	190.601	14.302	14.383										
57360	191.637	15.074	14.385										
57372	192.673	14.629	14.39										
57384	193.709	14.88	14.385										
57396	194.744	14.493	14.384										
57408	195.78	14.484	14.389										
57420	196.816	14.604	14.386										
57432	197.851	14.645	14.386										
57444	198.887	14.466	14.388										
57456	199.924	14.055	14.386										
57468	200.959	14.054	14.387										
57480	201.995	14.629	14.389										
57492	203.032	14.123	14.387										
57504	204.067	14.039	14.387										
57516	205.104	14.288	14.39										
57528	206.14	14.191	14.392										
57540	207.176	14.637	14.39										
57552	208.213	14.157	14.389										
57564	209.25	14.471	14.397										
57576	210.286	14.115	14.395										
57588	211.322	15.074	14.395										
57600	212.359	13.837	14.404										
57612	213.395	14.809	14.399										
57624	214.431	14.068	14.389										
57636	215.468	13.97	14.4										
57648	216.504	14.455	14.398										
57660	217.541	14.452	14.397										
57672	218.578	15.025	14.402										
57684	219.615	13.971	14.397										
57696	220.651	14.251	14.399										
57708	221.688	14.896	14.399										
57720	222.725	14.793	14.4										
57732	223.762	14.813	14.401										
57744	224.799	13.977	14.401										
57756	225.836	14.26	14.401										
57768	226.872	13.95	14.398										
57780	227.91	13.336	14.398										
57792	228.947	13.99	14.404										
57804	229.983	14.476	14.4										
57816	231.02	14.359	14.401										
57828	232.058	14.6	14.407										
57840	233.094	14.549	14.404										
57852	234.131	14.235	14.401										
57864	235.169	14.177	14.408										
57876	236.206	15.021	14.406										
57888	237.242	14.536	14.401										
57900	238.28	14.438	14.407										
57912	239.317	14.816	14.405										
57924	240.354	14.436	14.401										
57936	241.391	14.488	14.405										
57948	242.428	14.16	14.403										
57960	243.465	14.79	14.402										
57972	244.502	14.554	14.404										
57984	245.539	14.638	14.404										
57996	246.576	14.338	14.402										
58008	247.613	14.66	14.407										
58020	248.65	14.28	14.404										
58032	249.687	14.236	14.399										
58044	250.724	14.884	14.403										
58056	251.761	14.182	14.405										
58068	252.798	13.671	14.397										
58080	253.834	13.221	14.398										
58092	254.872	14.176	14.404										
58104	255.909	13.846	14.401										
58116	256.946	14.147	14.401										
58128	257.982	14.51	14.403										
58140	259.019	15.157	14.405										
58152	260.056	14.673	14.401										
58164	261.093	15.094	14.403										
58176	262.129	14.349	14.399										
58188	263.166	14.448	14.399										
58200	264.203	14.488	14.397										
58212	265.24	14.325	14.397										
58224	266.276	14.079	14.4										
58236	267.313	14.112	14.398										
58248	268.35	14.421	14.399										
58260	269.386	14.014	14.396										
58272	270.423	15.221	14.397										
58284	271.46	14.37	14.397										
58296	272.496	15.334	14.398										
58308	273.533	14.338	14.398										
58320	274.57	14.366	14.398										
58332	275.606	14.054	14.393										
58344	276.643	14.325	14.393										
58356	277.68	14.123	14.402										
58368	278.715	13.766	14.393										
58380	279.752	14.627	14.385										
58392	280.789	14.465	14.395										
58404	281.825	14.016	14.394										
58416	282.862	14.329	14.395										
58428	283.898	14.488	14.396										
58440	284.934	15.049	14.397										
58452	285.971	15.066	14.394										
58464	287.007	15.105	14.397										
58476	288.044	15.307	14.398										
58488	289.08	14.318	14.395										
58500	290.117	14.528	14.392										
58512	291.153	14.271	14.393										
58524	292.189	14.429	14.392										
58536	293.226	14.428	14.393										
58548	294.262	14.332	14.393										
58560	295.298	14.467	14.391										
58572	296.334	13.783	14.388										
58584	297.37	14.599	14.393										
58596	298.406	14.976	14.393										
58608	299.442	14.455	14.389										
58620	300.478	14.274	14.392										
58632	301.514	14.866	14.394										
58644	302.55	14.103	14.391										
58656	303.586	13.735	14.388										
58668	304.622	14.53	14.388										
58680	305.658	14.575	14.389										
58692	306.694	13.97	14.387										
58704	307.73	14.576	14.388										
58716	308.766	14.376	14.385										
58728	309.801	14.883	14.385										
58740	310.837	14.514	14.386										
58752	311.873	14.505	14.383										
58764	312.909	15.14	14.387										
58776	313.944	14.321	14.387										
58788	314.98	14.393	14.383										
58800	316.016	13.688	14.383										
58812	317.051	13.968	14.384										
58824	318.087	14.046	14.385										
58836	319.122	14.061	14.381										
58848	320.158	15.06	14.387										
58860	321.193	14.207	14.382										
58872	322.229	14.566	14.38										
58884	323.265	14.608	14.385										
58896	324.3	14.519	14.378										
58908	325.336	14.121	14.38										
58920	326.371	14.232	14.381										
58932	327.407	14.346	14.38										
58944	328.442	14.099	14.38										
58956	329.477	12.978	14.378										
58968	330.513	14.013	14.38										
58980	331.548	14.246	14.379										
58992	332.584	14.17	14.38										
59004	333.619	14.393	14.384										
59016	334.655	14.296	14.379										
59028	335.69	14.821	14.383										
59040	336.726	14.42	14.382										
59052	337.761	14.255	14.38										
59064	338.796	14.363	14.38										
59076	339.832	14.507	14.383										
59088	340.867	14.131	14.377										
59100	341.902	14.454	14.378										
59112	342.937	14.882	14.38										
59124	343.973	14.434	14.376										
59136	345.008	14.56	14.379										
59148	346.043	14.739	14.38										
59160	347.079	14.047	14.378										
59172	348.114	13.887	14.378										
59184	349.149	13.488	14.376										
59196	350.185	14.39	14.382										
59208	351.22	14.025	14.38										
59220	352.255	14.957	14.384										
59232	353.29	15.341	14.375										
59244	354.326	14.041	14.38										
59256	355.361	14.374	14.383										
59268	356.396	13.953	14.377										
59280	357.431	14.945	14.379										
59292	358.466	14.766	14.379										
59304	359.501	14.721	14.379										
59316	0.437	14.473	14.378										
59328	1.472	14.305	14.379										
59340	2.508	14.686	14.376										
59352	3.543	14.049	14.377										
59364	4.578	14.355	14.378										
59376	5.613	15.374	14.379										
59388	6.649	14.061	14.38										
59400	7.684	14.526	14.38										
59412	8.719	14.427	14.376										
59424	9.754	14.547	14.38										
59436	10.79	14.27	14.38										
59448	11.825	14.227	14.377										
59460	12.86	14.384	14.378										
59472	13.895	14.203	14.378										
59484	14.93	14.354	14.376										
59496	15.965	14.762	14.376										
59508	17	14.28	14.373										
59520	18.036	14.326	14.376										
59532	19.071	14.777	14.378										
59544	20.106	14.243	14.378										
59556	21.141	14.301	14.376										
59568	22.177	14.194	14.376										
59580	23.212	14.395	14.379										
59592	24.247	14.184	14.378										
59604	25.282	14.461	14.375										
59616	26.317	14.377	14.38										
59628	27.353	14.124	14.379										
59640	28.387	14.416	14.375										
59652	29.423	14.088	14.376										
59664	30.458	15.594	14.381										
59676	31.493	14.645	14.379										
59688	32.528	14.814	14.377										
59700	33.563	14.305	14.377										
59712	34.598	14.28	14.375										
59724	35.634	13.84	14.373										
59736	36.669	14.056	14.375										
59748	37.704	14.283	14.374										
59760	38.739	14.176	14.376										
59772	39.774	13.91	14.379										
59784	40.809	14.464	14.378										
59796	41.844	13.914	14.375										
59808	42.88	14.475	14.38										
59820	43.915	14.138	14.378										
59832	44.95	14.479	14.375										
59844	45.985	14.673	14.378										
59856	47.02	14.843	14.379										
59868	48.055	14.408	14.375										
59880	49.09	14.717	14.377										
59892	50.125	14.776	14.375										
59904	51.16	14.614	14.374										
59916	52.195	14.056	14.374										
59928	53.23	14.278	14.375										
59940	54.265	14.036	14.371										
59952	55.3	13.789	14.372										
59964	56.335	14.471	14.378										
59976	57.37	13.853	14.373										
59988	58.405	14.557	14.374										
